#timebase=4000000(ps)
,#voltbase=5000000(mv/100)
#size=4000
2.00E-08,9.600
4.00E-08,10.000
6.00E-08,10.000
8.00E-08,9.800
1.00E-07,10.000
1.20E-07,9.600
1.40E-07,10.000
1.60E-07,9.800
1.80E-07,9.800
2.00E-07,9.800
2.20E-07,9.800
2.40E-07,9.600
2.60E-07,10.000
2.80E-07,10.000
3.00E-07,9.800
3.20E-07,9.800
3.40E-07,10.000
3.60E-07,9.800
3.80E-07,10.000
4.00E-07,9.800
4.20E-07,9.800
4.40E-07,9.600
4.60E-07,9.800
4.80E-07,9.800
5.00E-07,9.600
5.20E-07,9.800
5.40E-07,9.800
5.60E-07,10.000
5.80E-07,10.000
6.00E-07,9.600
6.20E-07,9.400
6.40E-07,8.800
6.60E-07,8.200
6.80E-07,6.800
7.00E-07,6.000
7.20E-07,5.000
7.40E-07,4.200
7.60E-07,3.600
7.80E-07,2.600
8.00E-07,2.400
8.20E-07,1.800
8.40E-07,1.800
8.60E-07,1.400
8.80E-07,1.200
9.00E-07,1.000
9.20E-07,0.800
9.40E-07,1.000
9.60E-07,1.000
9.80E-07,1.000
1.00E-06,1.000
1.02E-06,1.000
1.04E-06,1.000
1.06E-06,1.200
1.08E-06,1.000
1.10E-06,1.000
1.12E-06,0.800
1.14E-06,0.600
1.16E-06,1.000
1.18E-06,1.000
1.20E-06,1.000
1.22E-06,1.000
1.24E-06,0.600
1.26E-06,0.800
1.28E-06,1.000
1.30E-06,0.800
1.32E-06,0.600
1.34E-06,0.800
1.36E-06,1.000
1.38E-06,0.800
1.40E-06,1.000
1.42E-06,0.600
1.44E-06,0.600
1.46E-06,0.800
1.48E-06,1.000
1.50E-06,1.000
1.52E-06,0.600
1.54E-06,0.800
1.56E-06,0.800
1.58E-06,0.800
1.60E-06,0.800
1.62E-06,1.000
1.64E-06,0.800
1.66E-06,0.600
1.68E-06,0.800
1.70E-06,1.000
1.72E-06,0.600
1.74E-06,0.800
1.76E-06,1.000
1.78E-06,0.800
1.80E-06,0.600
1.82E-06,0.800
1.84E-06,1.000
1.86E-06,0.600
1.88E-06,0.800
1.90E-06,0.800
1.92E-06,0.800
1.94E-06,1.000
1.96E-06,0.800
1.98E-06,0.600
2.00E-06,0.600
2.02E-06,1.000
2.04E-06,0.600
2.06E-06,1.200
2.08E-06,3.000
2.10E-06,4.400
2.12E-06,5.400
2.14E-06,6.200
2.16E-06,7.000
2.18E-06,7.600
2.20E-06,8.000
2.22E-06,8.200
2.24E-06,8.600
2.26E-06,9.000
2.28E-06,9.200
2.30E-06,9.200
2.32E-06,9.200
2.34E-06,9.400
2.36E-06,9.400
2.38E-06,9.400
2.40E-06,9.400
2.42E-06,9.800
2.44E-06,9.800
2.46E-06,9.600
2.48E-06,9.800
2.50E-06,9.600
2.52E-06,9.600
2.54E-06,9.800
2.56E-06,10.000
2.58E-06,10.000
2.60E-06,10.000
2.62E-06,9.600
2.64E-06,9.800
2.66E-06,9.800
2.68E-06,9.600
2.70E-06,10.000
2.72E-06,10.200
2.74E-06,10.000
2.76E-06,9.800
2.78E-06,9.800
2.80E-06,9.800
2.82E-06,9.800
2.84E-06,10.000
2.86E-06,10.000
2.88E-06,9.600
2.90E-06,10.000
2.92E-06,9.600
2.94E-06,10.000
2.96E-06,10.000
2.98E-06,10.200
3.00E-06,10.000
3.02E-06,9.800
3.04E-06,9.800
3.06E-06,9.800
3.08E-06,10.000
3.10E-06,10.000
3.12E-06,9.800
3.14E-06,10.200
3.16E-06,9.800
3.18E-06,9.800
3.20E-06,9.800
3.22E-06,10.000
3.24E-06,10.000
3.26E-06,9.800
3.28E-06,9.800
3.30E-06,10.000
3.32E-06,10.000
3.34E-06,9.600
3.36E-06,10.000
3.38E-06,10.000
3.40E-06,9.800
3.42E-06,9.800
3.44E-06,9.800
3.46E-06,9.600
3.48E-06,10.000
3.50E-06,10.000
3.52E-06,9.800
3.54E-06,10.000
3.56E-06,9.600
3.58E-06,9.600
3.60E-06,10.000
3.62E-06,9.800
3.64E-06,9.600
3.66E-06,10.000
3.68E-06,10.000
3.70E-06,9.800
3.72E-06,9.600
3.74E-06,9.600
3.76E-06,10.000
3.78E-06,10.000
3.80E-06,10.000
3.82E-06,9.800
3.84E-06,10.000
3.86E-06,9.800
3.88E-06,9.800
3.90E-06,10.000
3.92E-06,9.800
3.94E-06,9.800
3.96E-06,9.800
3.98E-06,9.800
4.00E-06,10.000
4.02E-06,10.000
4.04E-06,10.200
4.06E-06,9.800
4.08E-06,10.200
4.10E-06,10.000
4.12E-06,9.800
4.14E-06,9.800
4.16E-06,9.800
4.18E-06,10.000
4.20E-06,9.800
4.22E-06,9.800
4.24E-06,10.000
4.26E-06,10.000
4.28E-06,10.000
4.30E-06,9.800
4.32E-06,10.000
4.34E-06,10.000
4.36E-06,9.800
4.38E-06,9.600
4.40E-06,9.800
4.42E-06,9.800
4.44E-06,9.800
4.46E-06,9.600
4.48E-06,10.000
4.50E-06,10.000
4.52E-06,9.800
4.54E-06,10.000
4.56E-06,10.000
4.58E-06,10.000
4.60E-06,9.600
4.62E-06,9.800
4.64E-06,9.800
4.66E-06,10.000
4.68E-06,9.800
4.70E-06,10.000
4.72E-06,10.000
4.74E-06,9.800
4.76E-06,9.800
4.78E-06,9.800
4.80E-06,9.600
4.82E-06,10.000
4.84E-06,10.000
4.86E-06,9.600
4.88E-06,9.600
4.90E-06,9.600
4.92E-06,10.000
4.94E-06,10.000
4.96E-06,9.800
4.98E-06,9.800
5.00E-06,10.000
5.02E-06,9.600
5.04E-06,9.800
5.06E-06,9.800
5.08E-06,9.600
5.10E-06,9.600
5.12E-06,9.800
5.14E-06,9.800
5.16E-06,9.600
5.18E-06,9.800
5.20E-06,9.600
5.22E-06,9.600
5.24E-06,10.000
5.26E-06,10.000
5.28E-06,9.800
5.30E-06,9.800
5.32E-06,9.600
5.34E-06,9.800
5.36E-06,9.800
5.38E-06,9.800
5.40E-06,9.800
5.42E-06,9.600
5.44E-06,9.600
5.46E-06,9.800
5.48E-06,9.600
5.50E-06,10.000
5.52E-06,9.800
5.54E-06,10.000
5.56E-06,9.600
5.58E-06,10.000
5.60E-06,9.800
5.62E-06,10.000
5.64E-06,9.600
5.66E-06,9.800
5.68E-06,10.000
5.70E-06,9.600
5.72E-06,9.800
5.74E-06,10.000
5.76E-06,10.000
5.78E-06,9.600
5.80E-06,9.800
5.82E-06,9.800
5.84E-06,10.000
5.86E-06,10.000
5.88E-06,9.800
5.90E-06,9.800
5.92E-06,10.000
5.94E-06,9.600
5.96E-06,10.000
5.98E-06,10.000
6.00E-06,9.800
6.02E-06,9.800
6.04E-06,9.800
6.06E-06,9.800
6.08E-06,10.000
6.10E-06,10.000
6.12E-06,9.800
6.14E-06,9.800
6.16E-06,9.800
6.18E-06,9.800
6.20E-06,10.000
6.22E-06,9.800
6.24E-06,9.600
6.26E-06,9.600
6.28E-06,10.000
6.30E-06,10.000
6.32E-06,9.800
6.34E-06,9.800
6.36E-06,9.800
6.38E-06,9.800
6.40E-06,9.800
6.42E-06,10.000
6.44E-06,9.800
6.46E-06,9.600
6.48E-06,9.800
6.50E-06,9.800
6.52E-06,9.800
6.54E-06,10.000
6.56E-06,9.600
6.58E-06,9.800
6.60E-06,9.800
6.62E-06,10.000
6.64E-06,10.000
6.66E-06,10.000
6.68E-06,9.600
6.70E-06,9.800
6.72E-06,10.000
6.74E-06,10.000
6.76E-06,9.800
6.78E-06,10.000
6.80E-06,9.800
6.82E-06,9.800
6.84E-06,9.800
6.86E-06,9.800
6.88E-06,10.000
6.90E-06,10.000
6.92E-06,9.800
6.94E-06,9.800
6.96E-06,9.600
6.98E-06,9.800
7.00E-06,9.800
7.02E-06,10.000
7.04E-06,10.000
7.06E-06,9.800
7.08E-06,9.600
7.10E-06,9.800
7.12E-06,9.800
7.14E-06,10.000
7.16E-06,10.200
7.18E-06,9.800
7.20E-06,10.000
7.22E-06,9.800
7.24E-06,10.000
7.26E-06,9.800
7.28E-06,10.000
7.30E-06,9.800
7.32E-06,10.000
7.34E-06,9.800
7.36E-06,9.800
7.38E-06,9.800
7.40E-06,9.800
7.42E-06,9.800
7.44E-06,9.800
7.46E-06,10.000
7.48E-06,9.800
7.50E-06,9.800
7.52E-06,9.800
7.54E-06,10.000
7.56E-06,9.800
7.58E-06,9.800
7.60E-06,9.600
7.62E-06,9.800
7.64E-06,9.800
7.66E-06,9.800
7.68E-06,10.000
7.70E-06,10.000
7.72E-06,9.600
7.74E-06,9.600
7.76E-06,9.800
7.78E-06,9.800
7.80E-06,10.000
7.82E-06,9.600
7.84E-06,10.000
7.86E-06,9.800
7.88E-06,10.000
7.90E-06,10.000
7.92E-06,9.600
7.94E-06,10.000
7.96E-06,9.800
7.98E-06,9.800
8.00E-06,9.600
8.02E-06,9.800
8.04E-06,10.000
8.06E-06,10.000
8.08E-06,9.800
8.10E-06,10.000
8.12E-06,9.800
8.14E-06,9.800
8.16E-06,10.000
8.18E-06,9.800
8.20E-06,10.000
8.22E-06,9.800
8.24E-06,9.800
8.26E-06,9.800
8.28E-06,9.800
8.30E-06,9.600
8.32E-06,10.000
8.34E-06,10.000
8.36E-06,10.000
8.38E-06,9.600
8.40E-06,10.000
8.42E-06,9.200
8.44E-06,8.400
8.46E-06,7.600
8.48E-06,6.600
8.50E-06,5.800
8.52E-06,4.600
8.54E-06,4.000
8.56E-06,3.400
8.58E-06,2.800
8.60E-06,2.200
8.62E-06,1.800
8.64E-06,1.400
8.66E-06,1.400
8.68E-06,1.400
8.70E-06,1.200
8.72E-06,1.000
8.74E-06,1.200
8.76E-06,1.200
8.78E-06,1.000
8.80E-06,1.000
8.82E-06,0.800
8.84E-06,1.000
8.86E-06,1.200
8.88E-06,0.800
8.90E-06,0.600
8.92E-06,0.600
8.94E-06,0.800
8.96E-06,1.000
8.98E-06,1.000
9.00E-06,0.600
9.02E-06,0.800
9.04E-06,1.000
9.06E-06,0.800
9.08E-06,0.600
9.10E-06,0.800
9.12E-06,0.800
9.14E-06,1.000
9.16E-06,0.800
9.18E-06,0.600
9.20E-06,0.800
9.22E-06,0.800
9.24E-06,1.000
9.26E-06,0.800
9.28E-06,0.600
9.30E-06,0.800
9.32E-06,0.800
9.34E-06,1.000
9.36E-06,0.800
9.38E-06,0.600
9.40E-06,0.800
9.42E-06,0.600
9.44E-06,0.800
9.46E-06,1.000
9.48E-06,1.000
9.50E-06,0.400
9.52E-06,0.800
9.54E-06,1.000
9.56E-06,0.800
9.58E-06,0.600
9.60E-06,0.800
9.62E-06,0.600
9.64E-06,0.800
9.66E-06,0.600
9.68E-06,0.800
9.70E-06,0.800
9.72E-06,0.800
9.74E-06,1.000
9.76E-06,0.800
9.78E-06,1.000
9.80E-06,1.000
9.82E-06,1.000
9.84E-06,0.400
9.86E-06,0.800
9.88E-06,1.200
9.90E-06,2.600
9.92E-06,4.200
9.94E-06,5.400
9.96E-06,6.000
9.98E-06,6.800
1.00E-05,7.400
1.00E-05,7.800
1.00E-05,8.200
1.01E-05,8.800
1.01E-05,8.800
1.01E-05,8.600
1.01E-05,9.200
1.01E-05,9.400
1.02E-05,9.400
1.02E-05,9.400
1.02E-05,9.600
1.02E-05,9.800
1.02E-05,9.600
1.03E-05,9.600
1.03E-05,9.600
1.03E-05,9.600
1.03E-05,9.800
1.03E-05,9.600
1.04E-05,9.800
1.04E-05,9.600
1.04E-05,9.600
1.04E-05,10.000
1.04E-05,9.800
1.05E-05,9.800
1.05E-05,10.000
1.05E-05,10.000
1.05E-05,9.800
1.05E-05,9.800
1.06E-05,10.000
1.06E-05,9.800
1.06E-05,9.600
1.06E-05,9.800
1.06E-05,9.800
1.07E-05,9.800
1.07E-05,9.800
1.07E-05,10.000
1.07E-05,9.600
1.07E-05,10.000
1.08E-05,9.800
1.08E-05,10.000
1.08E-05,9.800
1.08E-05,10.000
1.08E-05,9.800
1.09E-05,10.000
1.09E-05,10.000
1.09E-05,9.800
1.09E-05,9.800
1.09E-05,10.000
1.10E-05,9.800
1.10E-05,9.800
1.10E-05,9.800
1.10E-05,10.000
1.10E-05,10.200
1.11E-05,9.600
1.11E-05,9.800
1.11E-05,10.000
1.11E-05,10.000
1.11E-05,9.800
1.12E-05,10.200
1.12E-05,10.200
1.12E-05,9.600
1.12E-05,9.600
1.12E-05,10.000
1.13E-05,10.000
1.13E-05,9.800
1.13E-05,9.800
1.13E-05,10.000
1.13E-05,9.600
1.14E-05,9.600
1.14E-05,9.800
1.14E-05,10.000
1.14E-05,9.800
1.14E-05,10.000
1.15E-05,10.000
1.15E-05,9.800
1.15E-05,9.800
1.15E-05,10.000
1.15E-05,10.000
1.16E-05,9.800
1.16E-05,9.600
1.16E-05,10.000
1.16E-05,10.200
1.16E-05,10.000
1.17E-05,9.800
1.17E-05,9.800
1.17E-05,9.800
1.17E-05,10.000
1.17E-05,9.800
1.18E-05,9.600
1.18E-05,9.800
1.18E-05,10.000
1.18E-05,10.000
1.18E-05,9.800
1.19E-05,9.800
1.19E-05,9.600
1.19E-05,10.000
1.19E-05,10.000
1.19E-05,9.800
1.20E-05,9.800
1.20E-05,9.800
1.20E-05,9.800
1.20E-05,10.000
1.20E-05,10.200
1.21E-05,9.800
1.21E-05,9.800
1.21E-05,9.600
1.21E-05,10.000
1.21E-05,10.000
1.22E-05,9.800
1.22E-05,9.800
1.22E-05,9.600
1.22E-05,10.000
1.22E-05,10.000
1.23E-05,9.800
1.23E-05,9.800
1.23E-05,9.800
1.23E-05,9.800
1.23E-05,9.800
1.24E-05,9.800
1.24E-05,10.000
1.24E-05,9.800
1.24E-05,9.800
1.24E-05,9.800
1.25E-05,10.000
1.25E-05,9.800
1.25E-05,9.800
1.25E-05,9.600
1.25E-05,9.800
1.26E-05,9.600
1.26E-05,9.600
1.26E-05,9.800
1.26E-05,10.000
1.26E-05,9.600
1.27E-05,9.600
1.27E-05,9.600
1.27E-05,9.800
1.27E-05,9.600
1.27E-05,10.000
1.28E-05,10.200
1.28E-05,9.800
1.28E-05,9.800
1.28E-05,9.600
1.28E-05,9.600
1.29E-05,9.800
1.29E-05,9.800
1.29E-05,9.800
1.29E-05,9.800
1.29E-05,10.000
1.30E-05,9.800
1.30E-05,9.600
1.30E-05,9.800
1.30E-05,9.800
1.30E-05,9.800
1.31E-05,9.600
1.31E-05,9.800
1.31E-05,10.000
1.31E-05,9.800
1.31E-05,10.000
1.32E-05,9.800
1.32E-05,9.800
1.32E-05,9.600
1.32E-05,9.800
1.32E-05,9.800
1.33E-05,9.600
1.33E-05,10.000
1.33E-05,9.800
1.33E-05,10.000
1.33E-05,9.800
1.34E-05,10.000
1.34E-05,9.800
1.34E-05,9.800
1.34E-05,9.800
1.34E-05,9.800
1.35E-05,9.800
1.35E-05,10.000
1.35E-05,10.000
1.35E-05,9.600
1.35E-05,9.800
1.36E-05,10.200
1.36E-05,10.000
1.36E-05,9.600
1.36E-05,10.000
1.36E-05,10.000
1.37E-05,9.800
1.37E-05,9.600
1.37E-05,10.000
1.37E-05,10.000
1.37E-05,9.800
1.38E-05,10.000
1.38E-05,10.000
1.38E-05,9.800
1.38E-05,9.800
1.38E-05,9.600
1.39E-05,9.800
1.39E-05,9.800
1.39E-05,10.000
1.39E-05,10.000
1.39E-05,9.800
1.40E-05,9.800
1.40E-05,9.800
1.40E-05,9.800
1.40E-05,9.800
1.40E-05,9.800
1.41E-05,10.000
1.41E-05,9.800
1.41E-05,9.800
1.41E-05,9.800
1.41E-05,9.800
1.42E-05,9.800
1.42E-05,9.800
1.42E-05,9.800
1.42E-05,9.800
1.42E-05,10.000
1.43E-05,9.800
1.43E-05,10.000
1.43E-05,9.800
1.43E-05,9.800
1.43E-05,9.800
1.44E-05,9.600
1.44E-05,9.800
1.44E-05,10.000
1.44E-05,9.600
1.44E-05,9.600
1.45E-05,9.800
1.45E-05,9.800
1.45E-05,9.800
1.45E-05,10.000
1.45E-05,10.000
1.46E-05,9.600
1.46E-05,9.600
1.46E-05,10.000
1.46E-05,10.200
1.46E-05,10.000
1.47E-05,9.800
1.47E-05,9.800
1.47E-05,9.800
1.47E-05,10.000
1.47E-05,9.800
1.48E-05,9.800
1.48E-05,10.000
1.48E-05,9.800
1.48E-05,10.000
1.48E-05,10.200
1.49E-05,9.800
1.49E-05,10.000
1.49E-05,10.000
1.49E-05,9.600
1.49E-05,10.000
1.50E-05,10.000
1.50E-05,9.800
1.50E-05,9.600
1.50E-05,9.800
1.50E-05,9.800
1.51E-05,9.800
1.51E-05,9.800
1.51E-05,9.800
1.51E-05,9.800
1.51E-05,9.800
1.52E-05,9.800
1.52E-05,9.800
1.52E-05,10.000
1.52E-05,10.000
1.52E-05,10.000
1.53E-05,9.600
1.53E-05,10.000
1.53E-05,9.800
1.53E-05,9.800
1.53E-05,10.000
1.54E-05,9.800
1.54E-05,9.800
1.54E-05,9.800
1.54E-05,9.800
1.54E-05,10.000
1.55E-05,9.800
1.55E-05,10.000
1.55E-05,10.000
1.55E-05,10.000
1.55E-05,9.800
1.56E-05,9.800
1.56E-05,10.000
1.56E-05,10.000
1.56E-05,9.800
1.56E-05,10.000
1.57E-05,10.000
1.57E-05,10.000
1.57E-05,9.600
1.57E-05,10.000
1.57E-05,9.800
1.58E-05,10.000
1.58E-05,9.800
1.58E-05,9.600
1.58E-05,9.400
1.58E-05,8.400
1.59E-05,7.600
1.59E-05,6.600
1.59E-05,5.400
1.59E-05,4.400
1.59E-05,3.800
1.60E-05,3.400
1.60E-05,2.600
1.60E-05,2.200
1.60E-05,2.000
1.60E-05,1.600
1.61E-05,1.200
1.61E-05,1.000
1.61E-05,1.200
1.61E-05,1.200
1.61E-05,1.200
1.62E-05,1.000
1.62E-05,0.800
1.62E-05,1.000
1.62E-05,1.200
1.62E-05,0.800
1.63E-05,1.000
1.63E-05,0.800
1.63E-05,0.600
1.63E-05,0.800
1.63E-05,1.000
1.64E-05,0.600
1.64E-05,0.800
1.64E-05,1.000
1.64E-05,0.800
1.64E-05,0.800
1.65E-05,1.000
1.65E-05,0.800
1.65E-05,1.000
1.65E-05,0.600
1.65E-05,0.600
1.66E-05,0.800
1.66E-05,0.600
1.66E-05,0.800
1.66E-05,0.600
1.66E-05,0.800
1.67E-05,0.600
1.67E-05,0.800
1.67E-05,1.000
1.67E-05,0.800
1.67E-05,0.600
1.68E-05,0.600
1.68E-05,0.800
1.68E-05,0.600
1.68E-05,0.800
1.68E-05,0.800
1.69E-05,1.000
1.69E-05,0.800
1.69E-05,1.000
1.69E-05,0.600
1.69E-05,0.800
1.70E-05,0.800
1.70E-05,1.000
1.70E-05,0.800
1.70E-05,1.000
1.70E-05,0.600
1.71E-05,0.600
1.71E-05,1.800
1.71E-05,3.200
1.71E-05,4.600
1.71E-05,5.400
1.72E-05,6.200
1.72E-05,6.800
1.72E-05,7.400
1.72E-05,8.000
1.72E-05,8.400
1.73E-05,8.600
1.73E-05,9.000
1.73E-05,9.000
1.73E-05,9.200
1.73E-05,9.000
1.74E-05,9.400
1.74E-05,9.600
1.74E-05,9.600
1.74E-05,9.600
1.74E-05,9.800
1.75E-05,9.600
1.75E-05,9.600
1.75E-05,9.800
1.75E-05,9.800
1.75E-05,9.600
1.76E-05,9.600
1.76E-05,9.800
1.76E-05,9.800
1.76E-05,10.000
1.76E-05,9.800
1.77E-05,9.800
1.77E-05,9.800
1.77E-05,9.800
1.77E-05,9.800
1.77E-05,9.800
1.78E-05,9.800
1.78E-05,9.800
1.78E-05,9.800
1.78E-05,10.000
1.78E-05,10.000
1.79E-05,9.800
1.79E-05,9.800
1.79E-05,10.200
1.79E-05,10.000
1.79E-05,9.800
1.80E-05,9.800
1.80E-05,9.800
1.80E-05,9.800
1.80E-05,9.800
1.80E-05,9.800
1.81E-05,10.000
1.81E-05,9.800
1.81E-05,9.800
1.81E-05,9.800
1.81E-05,10.000
1.82E-05,10.000
1.82E-05,10.000
1.82E-05,10.000
1.82E-05,9.800
1.82E-05,10.000
1.83E-05,10.000
1.83E-05,9.600
1.83E-05,10.000
1.83E-05,9.800
1.83E-05,9.800
1.84E-05,9.800
1.84E-05,9.800
1.84E-05,10.000
1.84E-05,10.000
1.84E-05,9.800
1.85E-05,10.000
1.85E-05,9.800
1.85E-05,9.800
1.85E-05,10.000
1.85E-05,9.800
1.86E-05,9.600
1.86E-05,9.800
1.86E-05,10.000
1.86E-05,9.800
1.86E-05,9.800
1.87E-05,9.800
1.87E-05,9.600
1.87E-05,9.800
1.87E-05,10.000
1.87E-05,9.800
1.88E-05,9.600
1.88E-05,9.800
1.88E-05,9.800
1.88E-05,10.200
1.88E-05,9.600
1.89E-05,9.800
1.89E-05,10.200
1.89E-05,9.600
1.89E-05,10.000
1.89E-05,9.800
1.90E-05,10.000
1.90E-05,10.000
1.90E-05,9.600
1.90E-05,9.800
1.90E-05,9.600
1.91E-05,9.600
1.91E-05,10.000
1.91E-05,9.800
1.91E-05,10.000
1.91E-05,9.800
1.92E-05,9.800
1.92E-05,10.000
1.92E-05,9.600
1.92E-05,9.800
1.92E-05,9.800
1.93E-05,9.800
1.93E-05,9.800
1.93E-05,9.800
1.93E-05,10.200
1.93E-05,9.800
1.94E-05,10.200
1.94E-05,9.600
1.94E-05,9.800
1.94E-05,10.200
1.94E-05,10.200
1.95E-05,9.800
1.95E-05,10.000
1.95E-05,9.800
1.95E-05,10.000
1.95E-05,9.800
1.96E-05,10.000
1.96E-05,10.200
1.96E-05,9.800
1.96E-05,10.000
1.96E-05,9.800
1.97E-05,10.000
1.97E-05,9.800
1.97E-05,9.600
1.97E-05,9.800
1.97E-05,9.800
1.98E-05,10.000
1.98E-05,10.000
1.98E-05,9.600
1.98E-05,9.800
1.98E-05,10.200
1.99E-05,9.800
1.99E-05,9.600
1.99E-05,10.000
1.99E-05,9.800
1.99E-05,9.800
2.00E-05,9.800
2.00E-05,9.800
2.00E-05,10.000
2.00E-05,9.600
2.00E-05,9.800
2.01E-05,10.000
2.01E-05,9.800
2.01E-05,9.800
2.01E-05,9.800
2.01E-05,9.800
2.02E-05,9.600
2.02E-05,10.000
2.02E-05,10.000
2.02E-05,9.800
2.02E-05,9.800
2.03E-05,9.800
2.03E-05,9.600
2.03E-05,10.000
2.03E-05,9.800
2.03E-05,9.800
2.04E-05,10.000
2.04E-05,10.000
2.04E-05,10.000
2.04E-05,9.800
2.04E-05,9.800
2.05E-05,9.600
2.05E-05,10.000
2.05E-05,9.600
2.05E-05,9.600
2.05E-05,9.600
2.06E-05,9.600
2.06E-05,10.000
2.06E-05,9.800
2.06E-05,9.800
2.06E-05,9.600
2.07E-05,10.000
2.07E-05,9.800
2.07E-05,9.600
2.07E-05,10.000
2.07E-05,10.000
2.08E-05,9.800
2.08E-05,9.800
2.08E-05,9.800
2.08E-05,10.000
2.08E-05,9.800
2.09E-05,9.800
2.09E-05,9.800
2.09E-05,10.000
2.09E-05,10.000
2.09E-05,9.800
2.10E-05,9.800
2.10E-05,9.800
2.10E-05,9.800
2.10E-05,10.000
2.10E-05,9.600
2.11E-05,10.000
2.11E-05,10.000
2.11E-05,9.800
2.11E-05,10.000
2.11E-05,9.800
2.12E-05,9.800
2.12E-05,10.000
2.12E-05,9.800
2.12E-05,9.600
2.12E-05,10.000
2.13E-05,9.800
2.13E-05,10.000
2.13E-05,10.000
2.13E-05,9.800
2.13E-05,9.800
2.14E-05,9.600
2.14E-05,10.000
2.14E-05,9.800
2.14E-05,10.000
2.14E-05,10.000
2.15E-05,10.200
2.15E-05,9.600
2.15E-05,9.800
2.15E-05,10.000
2.15E-05,9.600
2.16E-05,9.800
2.16E-05,10.200
2.16E-05,9.800
2.16E-05,10.000
2.16E-05,10.000
2.17E-05,9.800
2.17E-05,10.000
2.17E-05,9.600
2.17E-05,9.800
2.17E-05,9.800
2.18E-05,9.800
2.18E-05,9.800
2.18E-05,10.000
2.18E-05,10.000
2.18E-05,10.000
2.19E-05,9.800
2.19E-05,9.800
2.19E-05,10.200
2.19E-05,9.800
2.19E-05,9.800
2.20E-05,9.800
2.20E-05,10.000
2.20E-05,10.000
2.20E-05,9.800
2.20E-05,10.000
2.21E-05,9.600
2.21E-05,9.800
2.21E-05,9.800
2.21E-05,9.600
2.21E-05,10.200
2.22E-05,10.000
2.22E-05,9.800
2.22E-05,9.800
2.22E-05,10.000
2.22E-05,9.600
2.23E-05,9.800
2.23E-05,10.000
2.23E-05,10.000
2.23E-05,10.000
2.23E-05,9.800
2.24E-05,9.800
2.24E-05,10.200
2.24E-05,10.000
2.24E-05,9.800
2.24E-05,9.800
2.25E-05,10.000
2.25E-05,9.800
2.25E-05,10.000
2.25E-05,10.000
2.25E-05,10.000
2.26E-05,9.800
2.26E-05,9.800
2.26E-05,10.000
2.26E-05,9.800
2.26E-05,10.000
2.27E-05,10.200
2.27E-05,10.000
2.27E-05,9.800
2.27E-05,10.000
2.27E-05,9.800
2.28E-05,9.800
2.28E-05,9.800
2.28E-05,10.000
2.28E-05,10.000
2.28E-05,9.800
2.29E-05,9.800
2.29E-05,9.800
2.29E-05,9.600
2.29E-05,10.000
2.29E-05,10.000
2.30E-05,9.800
2.30E-05,10.200
2.30E-05,9.800
2.30E-05,10.000
2.30E-05,9.800
2.31E-05,9.600
2.31E-05,10.000
2.31E-05,10.000
2.31E-05,9.800
2.31E-05,10.000
2.32E-05,9.800
2.32E-05,9.800
2.32E-05,10.000
2.32E-05,9.800
2.32E-05,9.600
2.33E-05,10.000
2.33E-05,10.000
2.33E-05,10.000
2.33E-05,10.000
2.33E-05,9.800
2.34E-05,9.800
2.34E-05,10.000
2.34E-05,9.600
2.34E-05,10.000
2.34E-05,9.800
2.35E-05,10.000
2.35E-05,9.800
2.35E-05,9.800
2.35E-05,9.800
2.35E-05,10.000
2.36E-05,9.800
2.36E-05,9.600
2.36E-05,10.000
2.36E-05,10.000
2.36E-05,9.800
2.37E-05,9.800
2.37E-05,10.000
2.37E-05,10.200
2.37E-05,9.800
2.37E-05,10.000
2.38E-05,10.000
2.38E-05,10.000
2.38E-05,9.800
2.38E-05,9.800
2.38E-05,10.200
2.39E-05,9.800
2.39E-05,9.800
2.39E-05,9.800
2.39E-05,10.000
2.39E-05,9.800
2.40E-05,9.800
2.40E-05,9.800
2.40E-05,10.000
2.40E-05,9.800
2.40E-05,9.400
2.41E-05,8.400
2.41E-05,7.600
2.41E-05,6.600
2.41E-05,5.800
2.41E-05,4.800
2.42E-05,3.800
2.42E-05,3.400
2.42E-05,2.800
2.42E-05,2.200
2.42E-05,1.800
2.43E-05,1.600
2.43E-05,1.200
2.43E-05,1.200
2.43E-05,1.200
2.43E-05,1.000
2.44E-05,0.800
2.44E-05,1.000
2.44E-05,1.000
2.44E-05,1.000
2.44E-05,0.800
2.45E-05,1.000
2.45E-05,0.800
2.45E-05,1.000
2.45E-05,1.000
2.45E-05,0.800
2.46E-05,1.000
2.46E-05,1.000
2.46E-05,0.600
2.46E-05,0.600
2.46E-05,0.800
2.47E-05,1.000
2.47E-05,1.000
2.47E-05,0.600
2.47E-05,0.800
2.47E-05,1.000
2.48E-05,0.800
2.48E-05,1.000
2.48E-05,1.000
2.48E-05,0.600
2.48E-05,0.800
2.49E-05,1.000
2.49E-05,0.800
2.49E-05,0.600
2.49E-05,0.800
2.49E-05,1.000
2.50E-05,0.800
2.50E-05,0.600
2.50E-05,0.600
2.50E-05,0.800
2.50E-05,0.600
2.51E-05,0.600
2.51E-05,0.800
2.51E-05,0.400
2.51E-05,0.800
2.51E-05,0.800
2.52E-05,0.800
2.52E-05,0.800
2.52E-05,0.800
2.52E-05,1.000
2.52E-05,0.800
2.53E-05,0.800
2.53E-05,0.800
2.53E-05,0.800
2.53E-05,0.800
2.53E-05,1.400
2.54E-05,3.000
2.54E-05,4.600
2.54E-05,5.200
2.54E-05,6.200
2.54E-05,7.000
2.55E-05,7.600
2.55E-05,7.800
2.55E-05,8.400
2.55E-05,8.400
2.55E-05,8.800
2.56E-05,9.000
2.56E-05,9.200
2.56E-05,9.000
2.56E-05,9.200
2.56E-05,9.600
2.57E-05,9.600
2.57E-05,9.600
2.57E-05,9.800
2.57E-05,9.800
2.57E-05,9.600
2.58E-05,9.600
2.58E-05,9.600
2.58E-05,9.800
2.58E-05,9.800
2.58E-05,9.800
2.59E-05,9.600
2.59E-05,9.800
2.59E-05,9.800
2.59E-05,9.800
2.59E-05,9.800
2.60E-05,9.600
2.60E-05,9.800
2.60E-05,9.800
2.60E-05,10.000
2.60E-05,10.000
2.61E-05,9.600
2.61E-05,10.000
2.61E-05,9.800
2.61E-05,9.800
2.61E-05,9.800
2.62E-05,10.000
2.62E-05,10.000
2.62E-05,9.800
2.62E-05,9.800
2.62E-05,9.800
2.63E-05,9.800
2.63E-05,9.800
2.63E-05,10.200
2.63E-05,10.000
2.63E-05,9.800
2.64E-05,9.800
2.64E-05,9.800
2.64E-05,10.000
2.64E-05,10.000
2.64E-05,9.800
2.65E-05,10.000
2.65E-05,9.800
2.65E-05,10.000
2.65E-05,10.000
2.65E-05,9.800
2.66E-05,10.000
2.66E-05,9.800
2.66E-05,10.000
2.66E-05,10.000
2.66E-05,9.800
2.67E-05,10.000
2.67E-05,9.800
2.67E-05,9.800
2.67E-05,9.800
2.67E-05,9.800
2.68E-05,9.800
2.68E-05,9.800
2.68E-05,9.800
2.68E-05,10.000
2.68E-05,9.800
2.69E-05,9.800
2.69E-05,9.800
2.69E-05,9.800
2.69E-05,9.800
2.69E-05,10.000
2.70E-05,9.600
2.70E-05,10.000
2.70E-05,10.000
2.70E-05,9.800
2.70E-05,9.800
2.71E-05,9.800
2.71E-05,9.800
2.71E-05,9.800
2.71E-05,10.000
2.71E-05,10.000
2.72E-05,9.800
2.72E-05,9.800
2.72E-05,9.800
2.72E-05,10.000
2.72E-05,10.000
2.73E-05,9.800
2.73E-05,9.800
2.73E-05,9.800
2.73E-05,9.800
2.73E-05,10.000
2.74E-05,9.800
2.74E-05,10.000
2.74E-05,9.800
2.74E-05,9.800
2.74E-05,9.800
2.75E-05,10.000
2.75E-05,10.000
2.75E-05,9.800
2.75E-05,9.600
2.75E-05,9.800
2.76E-05,10.000
2.76E-05,10.000
2.76E-05,9.800
2.76E-05,10.000
2.76E-05,10.200
2.77E-05,9.800
2.77E-05,10.000
2.77E-05,9.800
2.77E-05,9.800
2.77E-05,9.800
2.78E-05,10.000
2.78E-05,9.800
2.78E-05,9.800
2.78E-05,10.000
2.78E-05,10.000
2.79E-05,9.800
2.79E-05,10.000
2.79E-05,9.800
2.79E-05,9.600
2.79E-05,10.000
2.80E-05,9.800
2.80E-05,9.800
2.80E-05,9.800
2.80E-05,9.600
2.80E-05,9.800
2.81E-05,9.800
2.81E-05,9.800
2.81E-05,9.800
2.81E-05,10.000
2.81E-05,10.000
2.82E-05,9.600
2.82E-05,10.000
2.82E-05,10.000
2.82E-05,9.800
2.82E-05,9.800
2.83E-05,10.000
2.83E-05,9.600
2.83E-05,9.800
2.83E-05,10.000
2.83E-05,9.800
2.84E-05,9.600
2.84E-05,9.800
2.84E-05,9.800
2.84E-05,9.800
2.84E-05,9.800
2.85E-05,9.600
2.85E-05,9.600
2.85E-05,9.800
2.85E-05,9.800
2.85E-05,10.000
2.86E-05,10.000
2.86E-05,9.800
2.86E-05,10.000
2.86E-05,10.000
2.86E-05,9.600
2.87E-05,9.800
2.87E-05,9.800
2.87E-05,9.800
2.87E-05,9.800
2.87E-05,9.800
2.88E-05,9.800
2.88E-05,10.000
2.88E-05,9.800
2.88E-05,10.200
2.88E-05,9.600
2.89E-05,10.000
2.89E-05,9.600
2.89E-05,9.800
2.89E-05,9.800
2.89E-05,10.000
2.90E-05,9.800
2.90E-05,9.800
2.90E-05,9.800
2.90E-05,9.800
2.90E-05,10.000
2.91E-05,9.800
2.91E-05,9.800
2.91E-05,10.000
2.91E-05,9.800
2.91E-05,9.800
2.92E-05,10.000
2.92E-05,9.800
2.92E-05,9.800
2.92E-05,9.800
2.92E-05,9.800
2.93E-05,10.000
2.93E-05,10.000
2.93E-05,9.800
2.93E-05,9.800
2.93E-05,9.800
2.94E-05,9.800
2.94E-05,9.800
2.94E-05,10.000
2.94E-05,10.200
2.94E-05,9.800
2.95E-05,10.000
2.95E-05,9.800
2.95E-05,9.800
2.95E-05,9.800
2.95E-05,10.000
2.96E-05,9.800
2.96E-05,9.800
2.96E-05,9.800
2.96E-05,9.800
2.96E-05,9.600
2.97E-05,9.800
2.97E-05,9.800
2.97E-05,9.800
2.97E-05,9.600
2.97E-05,9.800
2.98E-05,10.000
2.98E-05,10.000
2.98E-05,9.800
2.98E-05,10.000
2.98E-05,9.800
2.99E-05,10.000
2.99E-05,10.000
2.99E-05,9.600
2.99E-05,9.800
2.99E-05,10.000
3.00E-05,9.800
3.00E-05,10.000
3.00E-05,10.000
3.00E-05,9.600
3.00E-05,10.000
3.01E-05,10.000
3.01E-05,9.800
3.01E-05,9.800
3.01E-05,9.600
3.01E-05,9.600
3.02E-05,10.000
3.02E-05,9.800
3.02E-05,9.800
3.02E-05,10.000
3.02E-05,9.800
3.03E-05,9.800
3.03E-05,10.000
3.03E-05,10.200
3.03E-05,9.800
3.03E-05,9.800
3.04E-05,9.600
3.04E-05,10.000
3.04E-05,10.000
3.04E-05,9.800
3.04E-05,9.800
3.05E-05,9.800
3.05E-05,9.800
3.05E-05,10.000
3.05E-05,10.000
3.05E-05,10.000
3.06E-05,9.800
3.06E-05,9.800
3.06E-05,10.000
3.06E-05,10.000
3.06E-05,9.800
3.07E-05,9.800
3.07E-05,9.800
3.07E-05,9.800
3.07E-05,9.800
3.07E-05,9.800
3.08E-05,9.800
3.08E-05,10.000
3.08E-05,10.000
3.08E-05,9.800
3.08E-05,10.000
3.09E-05,10.000
3.09E-05,9.800
3.09E-05,9.800
3.09E-05,10.000
3.09E-05,9.800
3.10E-05,9.600
3.10E-05,9.800
3.10E-05,10.200
3.10E-05,10.000
3.10E-05,9.600
3.11E-05,9.800
3.11E-05,10.000
3.11E-05,10.000
3.11E-05,9.800
3.11E-05,10.000
3.12E-05,9.800
3.12E-05,10.000
3.12E-05,9.800
3.12E-05,9.800
3.12E-05,10.000
3.13E-05,9.600
3.13E-05,9.400
3.13E-05,8.600
3.13E-05,7.800
3.13E-05,6.600
3.14E-05,5.800
3.14E-05,5.000
3.14E-05,4.200
3.14E-05,3.400
3.14E-05,2.600
3.15E-05,2.200
3.15E-05,2.000
3.15E-05,1.800
3.15E-05,1.200
3.15E-05,1.400
3.16E-05,1.400
3.16E-05,1.000
3.16E-05,1.000
3.16E-05,1.000
3.16E-05,1.000
3.17E-05,1.000
3.17E-05,0.800
3.17E-05,0.800
3.17E-05,1.000
3.17E-05,0.800
3.18E-05,1.000
3.18E-05,0.800
3.18E-05,1.000
3.18E-05,0.800
3.18E-05,0.800
3.19E-05,0.800
3.19E-05,1.000
3.19E-05,0.800
3.19E-05,1.000
3.19E-05,1.000
3.20E-05,1.000
3.20E-05,0.600
3.20E-05,0.600
3.20E-05,0.800
3.20E-05,1.000
3.21E-05,1.000
3.21E-05,1.000
3.21E-05,1.000
3.21E-05,0.600
3.21E-05,0.800
3.22E-05,1.000
3.22E-05,0.800
3.22E-05,1.000
3.22E-05,0.600
3.22E-05,0.600
3.23E-05,0.800
3.23E-05,0.600
3.23E-05,0.600
3.23E-05,0.800
3.23E-05,0.600
3.24E-05,0.800
3.24E-05,1.000
3.24E-05,0.600
3.24E-05,0.600
3.24E-05,0.800
3.25E-05,0.600
3.25E-05,0.800
3.25E-05,0.600
3.25E-05,0.800
3.25E-05,1.000
3.26E-05,0.800
3.26E-05,1.000
3.26E-05,0.600
3.26E-05,0.600
3.26E-05,0.800
3.27E-05,0.600
3.27E-05,0.600
3.27E-05,0.800
3.27E-05,0.800
3.27E-05,1.000
3.28E-05,2.000
3.28E-05,3.600
3.28E-05,4.800
3.28E-05,6.000
3.28E-05,6.400
3.29E-05,7.000
3.29E-05,7.600
3.29E-05,8.000
3.29E-05,8.400
3.29E-05,8.800
3.30E-05,9.000
3.30E-05,9.200
3.30E-05,9.400
3.30E-05,9.200
3.30E-05,9.400
3.31E-05,9.400
3.31E-05,9.400
3.31E-05,9.600
3.31E-05,9.600
3.31E-05,9.600
3.32E-05,9.600
3.32E-05,9.600
3.32E-05,9.800
3.32E-05,9.600
3.32E-05,9.600
3.33E-05,10.000
3.33E-05,9.600
3.33E-05,9.800
3.33E-05,9.800
3.33E-05,10.000
3.34E-05,9.800
3.34E-05,9.800
3.34E-05,9.800
3.34E-05,9.800
3.34E-05,9.800
3.35E-05,10.000
3.35E-05,9.800
3.35E-05,10.000
3.35E-05,10.000
3.35E-05,9.800
3.36E-05,9.800
3.36E-05,10.000
3.36E-05,9.600
3.36E-05,10.000
3.36E-05,9.800
3.37E-05,9.800
3.37E-05,9.800
3.37E-05,9.800
3.37E-05,9.600
3.37E-05,10.000
3.38E-05,9.800
3.38E-05,10.200
3.38E-05,9.800
3.38E-05,9.800
3.38E-05,9.800
3.39E-05,9.800
3.39E-05,10.000
3.39E-05,10.000
3.39E-05,10.200
3.39E-05,9.800
3.40E-05,9.800
3.40E-05,9.800
3.40E-05,9.800
3.40E-05,9.800
3.40E-05,10.000
3.41E-05,10.000
3.41E-05,9.600
3.41E-05,9.800
3.41E-05,9.800
3.41E-05,9.800
3.42E-05,9.800
3.42E-05,10.000
3.42E-05,9.800
3.42E-05,9.800
3.42E-05,9.800
3.43E-05,9.800
3.43E-05,9.800
3.43E-05,10.000
3.43E-05,9.800
3.43E-05,10.000
3.44E-05,9.800
3.44E-05,9.600
3.44E-05,9.800
3.44E-05,9.800
3.44E-05,9.600
3.45E-05,10.000
3.45E-05,10.000
3.45E-05,9.800
3.45E-05,9.800
3.45E-05,10.000
3.46E-05,9.800
3.46E-05,10.000
3.46E-05,9.800
3.46E-05,9.800
3.46E-05,9.800
3.47E-05,10.000
3.47E-05,10.000
3.47E-05,9.800
3.47E-05,9.800
3.47E-05,9.800
3.48E-05,10.000
3.48E-05,9.800
3.48E-05,9.600
3.48E-05,9.800
3.48E-05,9.800
3.49E-05,10.000
3.49E-05,9.800
3.49E-05,9.600
3.49E-05,9.800
3.49E-05,10.000
3.50E-05,9.800
3.50E-05,9.800
3.50E-05,10.000
3.50E-05,10.200
3.50E-05,9.600
3.51E-05,9.800
3.51E-05,9.800
3.51E-05,9.800
3.51E-05,10.000
3.51E-05,10.000
3.52E-05,9.800
3.52E-05,9.800
3.52E-05,9.800
3.52E-05,10.000
3.52E-05,10.000
3.53E-05,10.000
3.53E-05,9.800
3.53E-05,9.600
3.53E-05,9.600
3.53E-05,9.600
3.54E-05,9.600
3.54E-05,9.600
3.54E-05,9.600
3.54E-05,9.600
3.54E-05,9.800
3.55E-05,10.000
3.55E-05,9.600
3.55E-05,9.800
3.55E-05,10.000
3.55E-05,9.600
3.56E-05,9.800
3.56E-05,9.600
3.56E-05,9.600
3.56E-05,9.800
3.56E-05,9.600
3.57E-05,9.800
3.57E-05,9.800
3.57E-05,9.600
3.57E-05,9.800
3.57E-05,9.600
3.58E-05,9.600
3.58E-05,9.800
3.58E-05,9.800
3.58E-05,10.000
3.58E-05,9.800
3.59E-05,10.000
3.59E-05,9.800
3.59E-05,9.800
3.59E-05,9.800
3.59E-05,9.800
3.60E-05,10.000
3.60E-05,9.800
3.60E-05,9.800
3.60E-05,10.000
3.60E-05,9.800
3.61E-05,9.600
3.61E-05,10.000
3.61E-05,10.000
3.61E-05,9.800
3.61E-05,9.600
3.62E-05,9.800
3.62E-05,10.000
3.62E-05,9.800
3.62E-05,9.800
3.62E-05,10.000
3.63E-05,10.000
3.63E-05,9.800
3.63E-05,10.000
3.63E-05,10.000
3.63E-05,9.600
3.64E-05,9.800
3.64E-05,10.000
3.64E-05,10.000
3.64E-05,9.800
3.64E-05,9.800
3.65E-05,10.000
3.65E-05,10.000
3.65E-05,10.000
3.65E-05,9.800
3.65E-05,9.800
3.66E-05,9.600
3.66E-05,10.000
3.66E-05,10.000
3.66E-05,9.800
3.66E-05,9.800
3.67E-05,10.000
3.67E-05,9.800
3.67E-05,9.800
3.67E-05,9.800
3.67E-05,9.800
3.68E-05,10.000
3.68E-05,9.800
3.68E-05,9.800
3.68E-05,10.000
3.68E-05,10.000
3.69E-05,9.800
3.69E-05,9.800
3.69E-05,9.800
3.69E-05,10.000
3.69E-05,9.800
3.70E-05,9.800
3.70E-05,9.800
3.70E-05,9.800
3.70E-05,9.800
3.70E-05,10.000
3.71E-05,10.000
3.71E-05,9.800
3.71E-05,9.600
3.71E-05,10.000
3.71E-05,10.200
3.72E-05,9.600
3.72E-05,9.800
3.72E-05,9.800
3.72E-05,9.800
3.72E-05,10.000
3.73E-05,9.800
3.73E-05,9.800
3.73E-05,9.800
3.73E-05,10.000
3.73E-05,9.800
3.74E-05,9.800
3.74E-05,9.800
3.74E-05,9.800
3.74E-05,9.600
3.74E-05,9.800
3.75E-05,10.000
3.75E-05,9.800
3.75E-05,10.000
3.75E-05,10.000
3.75E-05,10.000
3.76E-05,10.000
3.76E-05,9.800
3.76E-05,10.000
3.76E-05,10.000
3.76E-05,9.800
3.77E-05,9.800
3.77E-05,9.800
3.77E-05,9.800
3.77E-05,10.000
3.77E-05,10.000
3.78E-05,9.800
3.78E-05,10.000
3.78E-05,10.000
3.78E-05,9.800
3.78E-05,9.600
3.79E-05,9.600
3.79E-05,10.000
3.79E-05,10.000
3.79E-05,10.000
3.79E-05,9.800
3.80E-05,10.000
3.80E-05,10.000
3.80E-05,10.000
3.80E-05,10.200
3.80E-05,9.800
3.81E-05,9.800
3.81E-05,10.000
3.81E-05,10.000
3.81E-05,9.800
3.81E-05,9.800
3.82E-05,9.800
3.82E-05,10.000
3.82E-05,10.000
3.82E-05,10.000
3.82E-05,9.800
3.83E-05,9.800
3.83E-05,9.800
3.83E-05,10.000
3.83E-05,9.800
3.83E-05,10.000
3.84E-05,9.800
3.84E-05,9.800
3.84E-05,9.800
3.84E-05,9.600
3.84E-05,10.000
3.85E-05,9.800
3.85E-05,10.000
3.85E-05,9.600
3.85E-05,9.600
3.85E-05,9.400
3.86E-05,8.400
3.86E-05,7.400
3.86E-05,6.400
3.86E-05,5.400
3.86E-05,4.400
3.87E-05,3.800
3.87E-05,3.000
3.87E-05,2.400
3.87E-05,2.000
3.87E-05,1.800
3.88E-05,1.400
3.88E-05,1.200
3.88E-05,1.000
3.88E-05,1.200
3.88E-05,1.200
3.89E-05,1.000
3.89E-05,0.800
3.89E-05,1.000
3.89E-05,1.000
3.89E-05,1.200
3.90E-05,1.000
3.90E-05,1.000
3.90E-05,1.000
3.90E-05,1.000
3.90E-05,1.000
3.91E-05,0.600
3.91E-05,0.800
3.91E-05,0.800
3.91E-05,0.800
3.91E-05,1.000
3.92E-05,0.800
3.92E-05,0.800
3.92E-05,0.800
3.92E-05,1.000
3.92E-05,0.800
3.93E-05,0.600
3.93E-05,0.600
3.93E-05,0.800
3.93E-05,0.600
3.93E-05,0.600
3.94E-05,0.800
3.94E-05,0.800
3.94E-05,1.000
3.94E-05,0.800
3.94E-05,1.000
3.95E-05,0.600
3.95E-05,0.600
3.95E-05,0.800
3.95E-05,0.600
3.95E-05,0.800
3.96E-05,0.800
3.96E-05,1.000
3.96E-05,0.800
3.96E-05,0.600
3.96E-05,0.800
3.97E-05,1.000
3.97E-05,0.600
3.97E-05,0.600
3.97E-05,0.800
3.97E-05,0.600
3.98E-05,0.600
3.98E-05,0.800
3.98E-05,0.600
3.98E-05,0.600
3.98E-05,0.800
3.99E-05,0.800
3.99E-05,0.800
3.99E-05,1.000
3.99E-05,0.800
3.99E-05,2.000
4.00E-05,3.600
4.00E-05,4.800
4.00E-05,5.800
4.00E-05,6.600
4.00E-05,6.800
4.01E-05,7.600
4.01E-05,8.000
4.01E-05,8.400
4.01E-05,8.800
4.01E-05,9.000
4.02E-05,9.200
4.02E-05,9.200
4.02E-05,9.400
4.02E-05,9.400
4.02E-05,9.600
4.03E-05,9.600
4.03E-05,9.600
4.03E-05,9.600
4.03E-05,9.600
4.03E-05,9.800
4.04E-05,9.600
4.04E-05,9.600
4.04E-05,9.800
4.04E-05,10.000
4.04E-05,9.800
4.05E-05,9.800
4.05E-05,9.800
4.05E-05,9.800
4.05E-05,9.800
4.05E-05,10.200
4.06E-05,10.000
4.06E-05,10.000
4.06E-05,9.800
4.06E-05,10.000
4.06E-05,10.000
4.07E-05,9.800
4.07E-05,9.800
4.07E-05,9.800
4.07E-05,10.000
4.07E-05,10.000
4.08E-05,9.800
4.08E-05,9.800
4.08E-05,9.800
4.08E-05,10.000
4.08E-05,9.800
4.09E-05,9.800
4.09E-05,9.800
4.09E-05,10.000
4.09E-05,9.800
4.09E-05,10.200
4.10E-05,9.800
4.10E-05,10.000
4.10E-05,9.600
4.10E-05,10.000
4.10E-05,10.000
4.11E-05,9.600
4.11E-05,9.800
4.11E-05,9.800
4.11E-05,9.800
4.11E-05,9.800
4.12E-05,9.800
4.12E-05,9.800
4.12E-05,9.800
4.12E-05,10.000
4.12E-05,10.000
4.13E-05,9.800
4.13E-05,9.800
4.13E-05,10.000
4.13E-05,9.800
4.13E-05,9.800
4.14E-05,9.800
4.14E-05,10.000
4.14E-05,9.600
4.14E-05,9.600
4.14E-05,10.000
4.15E-05,9.800
4.15E-05,9.800
4.15E-05,9.800
4.15E-05,9.600
4.15E-05,10.000
4.16E-05,10.000
4.16E-05,9.600
4.16E-05,10.000
4.16E-05,10.000
4.16E-05,9.800
4.17E-05,10.000
4.17E-05,9.800
4.17E-05,9.600
4.17E-05,10.000
4.17E-05,9.800
4.18E-05,9.600
4.18E-05,9.600
4.18E-05,9.800
4.18E-05,10.000
4.18E-05,9.800
4.19E-05,9.800
4.19E-05,10.000
4.19E-05,9.800
4.19E-05,10.000
4.19E-05,10.000
4.20E-05,10.200
4.20E-05,9.800
4.20E-05,9.800
4.20E-05,10.000
4.20E-05,10.000
4.21E-05,9.600
4.21E-05,10.000
4.21E-05,10.000
4.21E-05,9.800
4.21E-05,10.000
4.22E-05,10.000
4.22E-05,9.800
4.22E-05,10.200
4.22E-05,10.000
4.22E-05,9.800
4.23E-05,10.000
4.23E-05,9.800
4.23E-05,9.800
4.23E-05,9.800
4.23E-05,9.600
4.24E-05,9.800
4.24E-05,10.000
4.24E-05,9.800
4.24E-05,9.800
4.24E-05,9.800
4.25E-05,10.000
4.25E-05,10.000
4.25E-05,9.800
4.25E-05,10.000
4.25E-05,9.800
4.26E-05,10.000
4.26E-05,10.000
4.26E-05,9.800
4.26E-05,9.600
4.26E-05,9.800
4.27E-05,9.800
4.27E-05,10.000
4.27E-05,10.000
4.27E-05,9.800
4.27E-05,10.000
4.28E-05,9.800
4.28E-05,10.000
4.28E-05,9.600
4.28E-05,10.000
4.28E-05,10.000
4.29E-05,9.800
4.29E-05,10.000
4.29E-05,10.000
4.29E-05,9.800
4.29E-05,10.000
4.30E-05,9.800
4.30E-05,9.800
4.30E-05,9.800
4.30E-05,9.800
4.30E-05,9.800
4.31E-05,9.800
4.31E-05,9.800
4.31E-05,9.800
4.31E-05,9.800
4.31E-05,10.000
4.32E-05,10.000
4.32E-05,9.800
4.32E-05,9.600
4.32E-05,9.800
4.32E-05,9.800
4.33E-05,10.000
4.33E-05,9.600
4.33E-05,9.800
4.33E-05,9.800
4.33E-05,10.000
4.34E-05,10.000
4.34E-05,9.800
4.34E-05,9.800
4.34E-05,9.600
4.34E-05,10.000
4.35E-05,9.800
4.35E-05,9.800
4.35E-05,9.800
4.35E-05,9.800
4.35E-05,9.800
4.36E-05,9.800
4.36E-05,9.800
4.36E-05,9.600
4.36E-05,9.800
4.36E-05,9.600
4.37E-05,9.600
4.37E-05,9.800
4.37E-05,9.600
4.37E-05,9.600
4.37E-05,10.000
4.38E-05,10.000
4.38E-05,9.800
4.38E-05,10.000
4.38E-05,9.800
4.38E-05,9.800
4.39E-05,9.800
4.39E-05,10.000
4.39E-05,9.600
4.39E-05,9.800
4.39E-05,10.000
4.40E-05,9.800
4.40E-05,9.600
4.40E-05,9.600
4.40E-05,10.000
4.40E-05,9.800
4.41E-05,10.000
4.41E-05,9.600
4.41E-05,9.800
4.41E-05,9.800
4.41E-05,9.800
4.42E-05,10.000
4.42E-05,9.800
4.42E-05,10.000
4.42E-05,9.600
4.42E-05,9.600
4.43E-05,9.800
4.43E-05,9.600
4.43E-05,9.800
4.43E-05,9.800
4.43E-05,9.800
4.44E-05,9.800
4.44E-05,9.800
4.44E-05,10.000
4.44E-05,9.800
4.44E-05,10.000
4.45E-05,9.800
4.45E-05,10.000
4.45E-05,9.800
4.45E-05,10.000
4.45E-05,9.800
4.46E-05,9.800
4.46E-05,9.800
4.46E-05,10.000
4.46E-05,10.000
4.46E-05,9.800
4.47E-05,10.000
4.47E-05,10.000
4.47E-05,9.800
4.47E-05,10.000
4.47E-05,10.000
4.48E-05,9.800
4.48E-05,9.800
4.48E-05,9.800
4.48E-05,9.800
4.48E-05,10.000
4.49E-05,10.000
4.49E-05,9.800
4.49E-05,9.800
4.49E-05,10.000
4.49E-05,9.800
4.50E-05,9.800
4.50E-05,10.000
4.50E-05,9.800
4.50E-05,10.000
4.50E-05,9.800
4.51E-05,9.800
4.51E-05,10.000
4.51E-05,10.000
4.51E-05,9.800
4.51E-05,9.800
4.52E-05,9.800
4.52E-05,10.000
4.52E-05,9.800
4.52E-05,9.800
4.52E-05,9.800
4.53E-05,9.800
4.53E-05,10.000
4.53E-05,9.800
4.53E-05,9.800
4.53E-05,10.200
4.54E-05,9.800
4.54E-05,10.000
4.54E-05,10.000
4.54E-05,9.800
4.54E-05,9.800
4.55E-05,9.800
4.55E-05,9.600
4.55E-05,10.000
4.55E-05,10.000
4.55E-05,9.600
4.56E-05,10.000
4.56E-05,10.000
4.56E-05,9.800
4.56E-05,10.000
4.56E-05,9.800
4.57E-05,9.800
4.57E-05,9.800
4.57E-05,9.800
4.57E-05,9.800
4.57E-05,10.000
4.58E-05,10.000
4.58E-05,9.800
4.58E-05,10.000
4.58E-05,10.000
4.58E-05,10.000
4.59E-05,9.800
4.59E-05,9.800
4.59E-05,10.000
4.59E-05,9.800
4.59E-05,10.000
4.60E-05,10.000
4.60E-05,9.800
4.60E-05,10.000
4.60E-05,9.800
4.60E-05,9.800
4.61E-05,9.800
4.61E-05,9.800
4.61E-05,9.800
4.61E-05,9.800
4.61E-05,9.600
4.62E-05,9.600
4.62E-05,9.800
4.62E-05,10.200
4.62E-05,9.800
4.62E-05,9.800
4.63E-05,10.000
4.63E-05,9.800
4.63E-05,9.800
4.63E-05,9.800
4.63E-05,9.800
4.64E-05,10.200
4.64E-05,9.800
4.64E-05,10.000
4.64E-05,9.800
4.64E-05,10.000
4.65E-05,10.000
4.65E-05,9.600
4.65E-05,10.000
4.65E-05,10.000
4.65E-05,9.800
4.66E-05,9.800
4.66E-05,9.800
4.66E-05,10.000
4.66E-05,9.800
4.66E-05,9.800
4.67E-05,9.800
4.67E-05,10.000
4.67E-05,10.200
4.67E-05,9.600
4.67E-05,10.000
4.68E-05,9.800
4.68E-05,9.800
4.68E-05,9.800
4.68E-05,9.800
4.68E-05,9.800
4.69E-05,9.800
4.69E-05,9.800
4.69E-05,10.000
4.69E-05,9.800
4.69E-05,9.800
4.70E-05,9.600
4.70E-05,10.000
4.70E-05,10.000
4.70E-05,9.800
4.70E-05,9.600
4.71E-05,9.200
4.71E-05,8.200
4.71E-05,6.800
4.71E-05,6.000
4.71E-05,5.200
4.72E-05,4.400
4.72E-05,3.600
4.72E-05,3.000
4.72E-05,2.400
4.72E-05,2.000
4.73E-05,1.800
4.73E-05,1.200
4.73E-05,1.200
4.73E-05,1.400
4.73E-05,1.400
4.74E-05,1.000
4.74E-05,1.000
4.74E-05,0.800
4.74E-05,1.000
4.74E-05,1.000
4.75E-05,0.600
4.75E-05,1.000
4.75E-05,1.000
4.75E-05,1.000
4.75E-05,1.000
4.76E-05,1.000
4.76E-05,0.600
4.76E-05,0.800
4.76E-05,1.000
4.76E-05,0.800
4.77E-05,0.800
4.77E-05,0.800
4.77E-05,0.800
4.77E-05,0.800
4.77E-05,1.000
4.78E-05,0.800
4.78E-05,0.600
4.78E-05,0.800
4.78E-05,1.000
4.78E-05,1.000
4.79E-05,1.000
4.79E-05,0.600
4.79E-05,0.600
4.79E-05,0.800
4.79E-05,0.600
4.80E-05,0.800
4.80E-05,0.600
4.80E-05,0.800
4.80E-05,0.800
4.80E-05,0.800
4.81E-05,0.800
4.81E-05,1.000
4.81E-05,0.800
4.81E-05,0.600
4.81E-05,0.800
4.82E-05,1.000
4.82E-05,0.800
4.82E-05,1.000
4.82E-05,1.000
4.82E-05,1.000
4.83E-05,1.000
4.83E-05,1.000
4.83E-05,0.800
4.83E-05,1.000
4.83E-05,1.000
4.84E-05,0.600
4.84E-05,2.000
4.84E-05,3.400
4.84E-05,5.000
4.84E-05,6.000
4.85E-05,6.600
4.85E-05,7.000
4.85E-05,7.600
4.85E-05,8.200
4.85E-05,8.400
4.86E-05,8.600
4.86E-05,9.000
4.86E-05,9.000
4.86E-05,9.000
4.86E-05,9.200
4.87E-05,9.400
4.87E-05,9.400
4.87E-05,9.400
4.87E-05,9.600
4.87E-05,9.600
4.88E-05,9.800
4.88E-05,9.800
4.88E-05,9.600
4.88E-05,9.600
4.88E-05,9.600
4.89E-05,9.800
4.89E-05,9.600
4.89E-05,10.000
4.89E-05,9.800
4.89E-05,9.800
4.90E-05,9.800
4.90E-05,10.000
4.90E-05,10.000
4.90E-05,9.800
4.90E-05,9.800
4.91E-05,10.200
4.91E-05,9.800
4.91E-05,9.800
4.91E-05,10.000
4.91E-05,10.000
4.92E-05,9.800
4.92E-05,9.800
4.92E-05,9.800
4.92E-05,10.000
4.92E-05,9.800
4.93E-05,10.000
4.93E-05,10.000
4.93E-05,10.000
4.93E-05,10.000
4.93E-05,9.800
4.94E-05,9.800
4.94E-05,9.800
4.94E-05,9.800
4.94E-05,9.800
4.94E-05,9.800
4.95E-05,9.800
4.95E-05,10.000
4.95E-05,10.000
4.95E-05,9.800
4.95E-05,10.000
4.96E-05,9.800
4.96E-05,9.800
4.96E-05,9.800
4.96E-05,10.000
4.96E-05,10.000
4.97E-05,10.000
4.97E-05,10.200
4.97E-05,9.800
4.97E-05,9.800
4.97E-05,9.800
4.98E-05,9.800
4.98E-05,10.000
4.98E-05,9.800
4.98E-05,9.800
4.98E-05,10.000
4.99E-05,9.800
4.99E-05,10.000
4.99E-05,9.800
4.99E-05,10.000
4.99E-05,9.800
5.00E-05,9.800
5.00E-05,9.800
5.00E-05,9.600
5.00E-05,9.800
5.00E-05,10.000
5.01E-05,10.000
5.01E-05,10.000
5.01E-05,9.800
5.01E-05,9.800
5.01E-05,9.800
5.02E-05,9.800
5.02E-05,9.800
5.02E-05,9.800
5.02E-05,10.000
5.02E-05,10.000
5.03E-05,9.800
5.03E-05,9.800
5.03E-05,9.800
5.03E-05,9.800
5.03E-05,9.800
5.04E-05,10.000
5.04E-05,10.000
5.04E-05,9.800
5.04E-05,9.800
5.04E-05,9.800
5.05E-05,9.800
5.05E-05,9.800
5.05E-05,10.000
5.05E-05,9.800
5.05E-05,9.800
5.06E-05,10.000
5.06E-05,9.800
5.06E-05,10.200
5.06E-05,10.000
5.06E-05,9.600
5.07E-05,9.600
5.07E-05,10.000
5.07E-05,10.000
5.07E-05,9.800
5.07E-05,9.600
5.08E-05,9.800
5.08E-05,10.000
5.08E-05,10.000
5.08E-05,9.800
5.08E-05,9.800
5.09E-05,9.600
5.09E-05,10.000
5.09E-05,10.000
5.09E-05,9.600
5.09E-05,9.600
5.10E-05,9.600
5.10E-05,9.600
5.10E-05,9.800
5.10E-05,9.800
5.10E-05,9.800
5.11E-05,9.800
5.11E-05,9.800
5.11E-05,9.600
5.11E-05,9.600
5.11E-05,9.800
5.12E-05,9.800
5.12E-05,10.000
5.12E-05,10.000
5.12E-05,9.800
5.12E-05,9.800
5.13E-05,9.800
5.13E-05,9.600
5.13E-05,10.000
5.13E-05,9.600
5.13E-05,9.800
5.14E-05,9.800
5.14E-05,10.000
5.14E-05,9.800
5.14E-05,9.600
5.14E-05,9.800
5.15E-05,9.800
5.15E-05,10.000
5.15E-05,9.800
5.15E-05,9.800
5.15E-05,9.800
5.16E-05,9.600
5.16E-05,9.600
5.16E-05,9.600
5.16E-05,10.200
5.16E-05,10.000
5.17E-05,9.800
5.17E-05,10.000
5.17E-05,10.200
5.17E-05,9.800
5.17E-05,10.000
5.18E-05,9.800
5.18E-05,9.800
5.18E-05,10.000
5.18E-05,10.000
5.18E-05,9.800
5.19E-05,9.800
5.19E-05,9.800
5.19E-05,9.800
5.19E-05,9.800
5.19E-05,10.000
5.20E-05,10.000
5.20E-05,9.800
5.20E-05,9.800
5.20E-05,10.000
5.20E-05,9.800
5.21E-05,9.800
5.21E-05,9.800
5.21E-05,9.800
5.21E-05,10.000
5.21E-05,10.000
5.22E-05,9.600
5.22E-05,10.200
5.22E-05,10.200
5.22E-05,9.800
5.22E-05,9.800
5.23E-05,10.200
5.23E-05,9.800
5.23E-05,9.800
5.23E-05,9.800
5.23E-05,10.000
5.24E-05,9.600
5.24E-05,9.800
5.24E-05,9.800
5.24E-05,10.200
5.24E-05,10.000
5.25E-05,9.800
5.25E-05,10.000
5.25E-05,9.800
5.25E-05,9.800
5.25E-05,9.600
5.26E-05,9.800
5.26E-05,9.800
5.26E-05,9.800
5.26E-05,9.800
5.26E-05,9.600
5.27E-05,10.000
5.27E-05,9.800
5.27E-05,9.800
5.27E-05,9.800
5.27E-05,10.000
5.28E-05,10.000
5.28E-05,9.800
5.28E-05,10.000
5.28E-05,9.800
5.28E-05,9.600
5.29E-05,10.000
5.29E-05,9.800
5.29E-05,10.000
5.29E-05,9.800
5.29E-05,9.600
5.30E-05,9.600
5.30E-05,9.800
5.30E-05,9.800
5.30E-05,10.200
5.30E-05,9.800
5.31E-05,9.800
5.31E-05,10.000
5.31E-05,10.000
5.31E-05,9.800
5.31E-05,10.000
5.32E-05,10.000
5.32E-05,9.800
5.32E-05,9.600
5.32E-05,9.800
5.32E-05,10.000
5.33E-05,10.000
5.33E-05,9.800
5.33E-05,9.800
5.33E-05,10.000
5.33E-05,10.200
5.34E-05,9.800
5.34E-05,10.000
5.34E-05,10.000
5.34E-05,9.800
5.34E-05,9.800
5.35E-05,9.800
5.35E-05,10.000
5.35E-05,10.000
5.35E-05,9.800
5.35E-05,9.600
5.36E-05,10.000
5.36E-05,10.200
5.36E-05,9.800
5.36E-05,9.800
5.36E-05,10.000
5.37E-05,10.000
5.37E-05,9.600
5.37E-05,9.800
5.37E-05,9.800
5.37E-05,9.800
5.38E-05,9.800
5.38E-05,9.800
5.38E-05,9.800
5.38E-05,9.800
5.38E-05,9.600
5.39E-05,9.800
5.39E-05,9.800
5.39E-05,10.200
5.39E-05,10.000
5.39E-05,9.800
5.40E-05,9.800
5.40E-05,9.800
5.40E-05,9.800
5.40E-05,9.800
5.40E-05,10.000
5.41E-05,9.800
5.41E-05,9.600
5.41E-05,9.200
5.41E-05,8.600
5.41E-05,7.600
5.42E-05,6.400
5.42E-05,5.400
5.42E-05,4.600
5.42E-05,4.200
5.42E-05,3.200
5.43E-05,2.600
5.43E-05,2.200
5.43E-05,1.800
5.43E-05,1.800
5.43E-05,1.000
5.44E-05,1.200
5.44E-05,1.400
5.44E-05,1.000
5.44E-05,0.800
5.44E-05,1.000
5.45E-05,1.000
5.45E-05,1.000
5.45E-05,0.600
5.45E-05,1.000
5.45E-05,1.000
5.46E-05,1.000
5.46E-05,1.000
5.46E-05,0.600
5.46E-05,0.800
5.46E-05,0.800
5.47E-05,1.000
5.47E-05,0.800
5.47E-05,0.600
5.47E-05,0.800
5.47E-05,1.000
5.48E-05,1.000
5.48E-05,1.000
5.48E-05,0.600
5.48E-05,0.800
5.48E-05,1.000
5.49E-05,0.800
5.49E-05,0.800
5.49E-05,1.000
5.49E-05,0.800
5.49E-05,0.800
5.50E-05,0.800
5.50E-05,0.800
5.50E-05,1.000
5.50E-05,0.800
5.50E-05,1.000
5.51E-05,1.000
5.51E-05,1.000
5.51E-05,0.600
5.51E-05,0.800
5.51E-05,0.800
5.52E-05,0.800
5.52E-05,1.000
5.52E-05,0.800
5.52E-05,0.800
5.52E-05,1.000
5.53E-05,0.800
5.53E-05,0.600
5.53E-05,0.800
5.53E-05,1.000
5.53E-05,1.000
5.54E-05,0.600
5.54E-05,0.600
5.54E-05,0.800
5.54E-05,0.800
5.54E-05,1.000
5.55E-05,0.800
5.55E-05,0.800
5.55E-05,1.000
5.55E-05,0.800
5.55E-05,2.600
5.56E-05,3.600
5.56E-05,5.200
5.56E-05,5.800
5.56E-05,6.600
5.56E-05,7.000
5.57E-05,7.800
5.57E-05,8.000
5.57E-05,8.400
5.57E-05,8.600
5.57E-05,8.800
5.58E-05,9.200
5.58E-05,9.400
5.58E-05,9.600
5.58E-05,9.400
5.58E-05,9.800
5.59E-05,9.400
5.59E-05,9.800
5.59E-05,9.800
5.59E-05,9.600
5.59E-05,9.800
5.60E-05,9.600
5.60E-05,9.600
5.60E-05,10.000
5.60E-05,9.600
5.60E-05,9.800
5.61E-05,10.000
5.61E-05,10.000
5.61E-05,9.800
5.61E-05,9.800
5.61E-05,9.800
5.62E-05,9.800
5.62E-05,9.800
5.62E-05,10.000
5.62E-05,9.800
5.62E-05,9.800
5.63E-05,9.800
5.63E-05,10.000
5.63E-05,9.800
5.63E-05,10.000
5.63E-05,10.000
5.64E-05,9.800
5.64E-05,10.000
5.64E-05,9.800
5.64E-05,10.000
5.64E-05,9.800
5.65E-05,10.000
5.65E-05,9.600
5.65E-05,9.800
5.65E-05,9.800
5.65E-05,9.800
5.66E-05,9.800
5.66E-05,10.000
5.66E-05,9.800
5.66E-05,10.000
5.66E-05,9.800
5.67E-05,9.800
5.67E-05,9.800
5.67E-05,10.000
5.67E-05,10.000
5.67E-05,10.200
5.68E-05,9.600
5.68E-05,10.000
5.68E-05,9.800
5.68E-05,10.000
5.68E-05,9.600
5.69E-05,9.800
5.69E-05,10.200
5.69E-05,10.200
5.69E-05,9.600
5.69E-05,9.800
5.70E-05,10.000
5.70E-05,9.800
5.70E-05,10.000
5.70E-05,10.000
5.70E-05,9.600
5.71E-05,10.000
5.71E-05,10.000
5.71E-05,9.800
5.71E-05,10.000
5.71E-05,9.800
5.72E-05,10.000
5.72E-05,9.800
5.72E-05,9.800
5.72E-05,10.000
5.72E-05,9.800
5.73E-05,9.600
5.73E-05,9.600
5.73E-05,9.800
5.73E-05,10.000
5.73E-05,10.000
5.74E-05,9.800
5.74E-05,9.600
5.74E-05,9.800
5.74E-05,9.800
5.74E-05,10.000
5.75E-05,9.800
5.75E-05,10.200
5.75E-05,10.000
5.75E-05,9.800
5.75E-05,9.800
5.76E-05,9.800
5.76E-05,9.800
5.76E-05,9.800
5.76E-05,10.000
5.76E-05,9.800
5.77E-05,9.800
5.77E-05,9.800
5.77E-05,10.000
5.77E-05,9.800
5.77E-05,9.600
5.78E-05,10.000
5.78E-05,10.000
5.78E-05,9.800
5.78E-05,10.000
5.78E-05,9.800
5.79E-05,10.000
5.79E-05,10.000
5.79E-05,10.000
5.79E-05,10.000
5.79E-05,9.800
5.80E-05,10.000
5.80E-05,9.800
5.80E-05,9.800
5.80E-05,10.000
5.80E-05,10.000
5.81E-05,9.800
5.81E-05,10.000
5.81E-05,9.800
5.81E-05,9.800
5.81E-05,9.800
5.82E-05,10.000
5.82E-05,9.800
5.82E-05,9.600
5.82E-05,9.800
5.82E-05,9.600
5.83E-05,9.600
5.83E-05,9.800
5.83E-05,9.800
5.83E-05,9.800
5.83E-05,9.600
5.84E-05,9.800
5.84E-05,9.800
5.84E-05,9.800
5.84E-05,10.000
5.84E-05,9.600
5.85E-05,9.800
5.85E-05,9.800
5.85E-05,10.000
5.85E-05,9.800
5.85E-05,9.800
5.86E-05,10.000
5.86E-05,9.800
5.86E-05,10.000
5.86E-05,9.800
5.86E-05,9.800
5.87E-05,9.800
5.87E-05,9.600
5.87E-05,9.800
5.87E-05,9.600
5.87E-05,9.800
5.88E-05,9.800
5.88E-05,9.600
5.88E-05,10.000
5.88E-05,9.800
5.88E-05,10.000
5.89E-05,9.600
5.89E-05,9.800
5.89E-05,9.800
5.89E-05,9.800
5.89E-05,9.800
5.90E-05,9.800
5.90E-05,9.800
5.90E-05,9.800
5.90E-05,10.000
5.90E-05,9.800
5.91E-05,9.800
5.91E-05,10.000
5.91E-05,10.000
5.91E-05,9.800
5.91E-05,9.800
5.92E-05,9.800
5.92E-05,10.000
5.92E-05,10.000
5.92E-05,9.800
5.92E-05,10.000
5.93E-05,10.200
5.93E-05,9.600
5.93E-05,9.800
5.93E-05,9.800
5.93E-05,10.000
5.94E-05,10.000
5.94E-05,9.800
5.94E-05,9.800
5.94E-05,10.000
5.94E-05,10.000
5.95E-05,9.600
5.95E-05,9.600
5.95E-05,9.800
5.95E-05,10.200
5.95E-05,10.000
5.96E-05,9.800
5.96E-05,9.600
5.96E-05,10.000
5.96E-05,10.200
5.96E-05,9.800
5.97E-05,9.600
5.97E-05,9.800
5.97E-05,10.200
5.97E-05,9.800
5.97E-05,10.000
5.98E-05,9.600
5.98E-05,10.000
5.98E-05,9.800
5.98E-05,9.800
5.98E-05,9.800
5.99E-05,9.600
5.99E-05,9.600
5.99E-05,10.000
5.99E-05,10.000
5.99E-05,9.800
6.00E-05,9.800
6.00E-05,9.600
6.00E-05,10.000
6.00E-05,10.000
6.00E-05,9.600
6.01E-05,9.800
6.01E-05,10.000
6.01E-05,9.800
6.01E-05,9.600
6.01E-05,9.800
6.02E-05,9.800
6.02E-05,9.800
6.02E-05,10.000
6.02E-05,9.800
6.02E-05,9.800
6.03E-05,9.800
6.03E-05,10.200
6.03E-05,9.800
6.03E-05,9.800
6.03E-05,9.800
6.04E-05,9.600
6.04E-05,9.600
6.04E-05,10.000
6.04E-05,10.200
6.04E-05,9.800
6.05E-05,9.800
6.05E-05,10.000
6.05E-05,9.800
6.05E-05,10.000
6.05E-05,9.800
6.06E-05,10.000
6.06E-05,9.800
6.06E-05,9.800
6.06E-05,10.000
6.06E-05,9.800
6.07E-05,9.800
6.07E-05,9.600
6.07E-05,9.800
6.07E-05,10.000
6.07E-05,10.200
6.08E-05,9.800
6.08E-05,9.800
6.08E-05,10.200
6.08E-05,9.800
6.08E-05,9.800
6.09E-05,10.000
6.09E-05,10.000
6.09E-05,9.800
6.09E-05,10.000
6.09E-05,10.000
6.10E-05,9.800
6.10E-05,10.000
6.10E-05,10.000
6.10E-05,10.000
6.10E-05,9.800
6.11E-05,10.000
6.11E-05,10.000
6.11E-05,9.800
6.11E-05,9.800
6.11E-05,9.800
6.12E-05,10.000
6.12E-05,9.800
6.12E-05,9.800
6.12E-05,9.800
6.12E-05,10.000
6.13E-05,9.600
6.13E-05,9.600
6.13E-05,10.000
6.13E-05,10.000
6.13E-05,9.600
6.14E-05,10.000
6.14E-05,9.800
6.14E-05,10.000
6.14E-05,10.000
6.14E-05,9.800
6.15E-05,9.600
6.15E-05,9.800
6.15E-05,9.800
6.15E-05,9.600
6.15E-05,8.400
6.16E-05,7.800
6.16E-05,6.600
6.16E-05,5.800
6.16E-05,5.000
6.16E-05,4.400
6.17E-05,3.200
6.17E-05,2.600
6.17E-05,2.200
6.17E-05,2.000
6.17E-05,1.800
6.18E-05,1.200
6.18E-05,1.000
6.18E-05,1.200
6.18E-05,1.200
6.18E-05,1.200
6.19E-05,1.200
6.19E-05,1.000
6.19E-05,1.200
6.19E-05,1.000
6.19E-05,1.000
6.20E-05,0.600
6.20E-05,0.600
6.20E-05,0.800
6.20E-05,0.800
6.20E-05,0.800
6.21E-05,0.800
6.21E-05,1.000
6.21E-05,0.800
6.21E-05,0.600
6.21E-05,0.600
6.22E-05,0.800
6.22E-05,0.600
6.22E-05,0.600
6.22E-05,0.800
6.22E-05,0.800
6.23E-05,0.800
6.23E-05,0.800
6.23E-05,0.800
6.23E-05,1.000
6.23E-05,0.800
6.24E-05,1.000
6.24E-05,0.600
6.24E-05,0.800
6.24E-05,0.800
6.24E-05,1.000
6.25E-05,0.800
6.25E-05,0.800
6.25E-05,0.800
6.25E-05,1.000
6.25E-05,0.800
6.26E-05,1.000
6.26E-05,0.600
6.26E-05,0.800
6.26E-05,0.800
6.26E-05,0.800
6.27E-05,0.800
6.27E-05,1.000
6.27E-05,0.800
6.27E-05,1.000
6.27E-05,1.000
6.28E-05,0.600
6.28E-05,0.800
6.28E-05,0.800
6.28E-05,1.600
6.28E-05,3.000
6.29E-05,4.600
6.29E-05,5.600
6.29E-05,6.200
6.29E-05,6.800
6.29E-05,7.600
6.30E-05,7.800
6.30E-05,8.400
6.30E-05,8.400
6.30E-05,9.000
6.30E-05,8.800
6.31E-05,9.200
6.31E-05,9.200
6.31E-05,9.400
6.31E-05,9.400
6.31E-05,9.600
6.32E-05,9.600
6.32E-05,9.600
6.32E-05,9.600
6.32E-05,9.800
6.32E-05,9.800
6.33E-05,9.600
6.33E-05,9.800
6.33E-05,9.800
6.33E-05,9.600
6.33E-05,9.600
6.34E-05,9.800
6.34E-05,9.600
6.34E-05,9.800
6.34E-05,9.800
6.34E-05,10.000
6.35E-05,10.000
6.35E-05,9.800
6.35E-05,9.800
6.35E-05,10.000
6.35E-05,9.800
6.36E-05,10.000
6.36E-05,10.000
6.36E-05,9.800
6.36E-05,9.800
6.36E-05,9.800
6.37E-05,10.000
6.37E-05,10.200
6.37E-05,9.800
6.37E-05,9.800
6.37E-05,10.000
6.38E-05,9.800
6.38E-05,9.800
6.38E-05,10.200
6.38E-05,10.000
6.38E-05,10.000
6.39E-05,10.000
6.39E-05,10.000
6.39E-05,9.800
6.39E-05,9.800
6.39E-05,9.800
6.40E-05,9.800
6.40E-05,10.000
6.40E-05,9.800
6.40E-05,9.800
6.40E-05,9.800
6.41E-05,9.800
6.41E-05,9.800
6.41E-05,9.800
6.41E-05,9.800
6.41E-05,9.800
6.42E-05,9.800
6.42E-05,10.000
6.42E-05,9.800
6.42E-05,9.800
6.42E-05,10.000
6.43E-05,10.000
6.43E-05,9.800
6.43E-05,9.800
6.43E-05,9.600
6.43E-05,10.000
6.44E-05,9.800
6.44E-05,9.600
6.44E-05,9.800
6.44E-05,9.800
6.44E-05,9.800
6.45E-05,9.800
6.45E-05,9.800
6.45E-05,9.600
6.45E-05,10.000
6.45E-05,9.800
6.46E-05,9.800
6.46E-05,9.600
6.46E-05,9.800
6.46E-05,9.800
6.46E-05,9.800
6.47E-05,10.000
6.47E-05,9.800
6.47E-05,10.000
6.47E-05,9.800
6.47E-05,9.600
6.48E-05,9.800
6.48E-05,9.800
6.48E-05,10.000
6.48E-05,9.800
6.48E-05,9.800
6.49E-05,9.800
6.49E-05,9.600
6.49E-05,9.800
6.49E-05,9.800
6.49E-05,9.800
6.50E-05,9.600
6.50E-05,10.000
6.50E-05,10.000
6.50E-05,9.800
6.50E-05,9.600
6.51E-05,9.800
6.51E-05,9.800
6.51E-05,9.600
6.51E-05,9.800
6.51E-05,10.000
6.52E-05,9.800
6.52E-05,10.000
6.52E-05,10.000
6.52E-05,9.600
6.52E-05,10.000
6.53E-05,10.000
6.53E-05,9.800
6.53E-05,9.800
6.53E-05,10.000
6.53E-05,9.600
6.54E-05,10.000
6.54E-05,10.000
6.54E-05,10.000
6.54E-05,9.800
6.54E-05,9.800
6.55E-05,9.800
6.55E-05,10.000
6.55E-05,10.000
6.55E-05,10.000
6.55E-05,10.200
6.56E-05,9.800
6.56E-05,9.800
6.56E-05,10.000
6.56E-05,9.800
6.56E-05,10.000
6.57E-05,9.800
6.57E-05,9.800
6.57E-05,9.800
6.57E-05,9.600
6.57E-05,9.600
6.58E-05,9.800
6.58E-05,9.600
6.58E-05,10.000
6.58E-05,10.000
6.58E-05,9.600
6.59E-05,9.600
6.59E-05,9.800
6.59E-05,10.000
6.59E-05,9.800
6.59E-05,9.800
6.60E-05,9.800
6.60E-05,9.800
6.60E-05,9.600
6.60E-05,9.800
6.60E-05,9.800
6.61E-05,9.800
6.61E-05,10.000
6.61E-05,9.800
6.61E-05,9.800
6.61E-05,9.600
6.62E-05,9.800
6.62E-05,10.000
6.62E-05,9.800
6.62E-05,9.600
6.62E-05,9.800
6.63E-05,9.800
6.63E-05,9.600
6.63E-05,10.000
6.63E-05,9.600
6.63E-05,10.000
6.64E-05,9.800
6.64E-05,9.600
6.64E-05,9.800
6.64E-05,10.000
6.64E-05,10.000
6.65E-05,9.800
6.65E-05,9.800
6.65E-05,10.000
6.65E-05,10.000
6.65E-05,9.800
6.66E-05,9.800
6.66E-05,9.600
6.66E-05,9.800
6.66E-05,10.000
6.66E-05,10.000
6.67E-05,10.000
6.67E-05,9.800
6.67E-05,10.200
6.67E-05,9.600
6.67E-05,9.600
6.68E-05,10.200
6.68E-05,10.000
6.68E-05,9.800
6.68E-05,9.800
6.68E-05,10.000
6.69E-05,10.000
6.69E-05,9.600
6.69E-05,9.800
6.69E-05,10.000
6.69E-05,9.800
6.70E-05,9.800
6.70E-05,10.000
6.70E-05,9.800
6.70E-05,9.800
6.70E-05,10.000
6.71E-05,9.800
6.71E-05,9.800
6.71E-05,10.000
6.71E-05,10.000
6.71E-05,9.800
6.72E-05,9.600
6.72E-05,9.800
6.72E-05,10.000
6.72E-05,10.000
6.72E-05,9.800
6.73E-05,9.600
6.73E-05,9.800
6.73E-05,10.200
6.73E-05,9.800
6.73E-05,9.800
6.74E-05,9.800
6.74E-05,9.800
6.74E-05,10.000
6.74E-05,9.800
6.74E-05,10.000
6.75E-05,9.800
6.75E-05,9.600
6.75E-05,10.000
6.75E-05,10.000
6.75E-05,9.800
6.76E-05,9.800
6.76E-05,10.000
6.76E-05,10.000
6.76E-05,9.800
6.76E-05,9.800
6.77E-05,10.000
6.77E-05,10.000
6.77E-05,9.600
6.77E-05,10.000
6.77E-05,10.000
6.78E-05,9.600
6.78E-05,9.600
6.78E-05,9.800
6.78E-05,9.800
6.78E-05,10.000
6.79E-05,10.000
6.79E-05,9.800
6.79E-05,10.200
6.79E-05,9.800
6.79E-05,9.800
6.80E-05,10.000
6.80E-05,10.000
6.80E-05,9.600
6.80E-05,9.800
6.80E-05,9.600
6.81E-05,9.800
6.81E-05,9.800
6.81E-05,10.000
6.81E-05,9.800
6.81E-05,9.800
6.82E-05,9.600
6.82E-05,9.800
6.82E-05,10.000
6.82E-05,10.000
6.82E-05,9.600
6.83E-05,10.000
6.83E-05,10.000
6.83E-05,9.800
6.83E-05,9.600
6.83E-05,9.800
6.84E-05,9.600
6.84E-05,10.000
6.84E-05,9.800
6.84E-05,9.800
6.84E-05,9.800
6.85E-05,9.800
6.85E-05,9.800
6.85E-05,10.000
6.85E-05,10.000
6.85E-05,9.800
6.86E-05,10.000
6.86E-05,9.800
6.86E-05,9.800
6.86E-05,9.800
6.86E-05,9.800
6.87E-05,10.000
6.87E-05,10.000
6.87E-05,10.000
6.87E-05,9.800
6.87E-05,9.600
6.88E-05,9.800
6.88E-05,9.800
6.88E-05,10.000
6.88E-05,10.000
6.88E-05,9.600
6.89E-05,10.000
6.89E-05,10.000
6.89E-05,9.800
6.89E-05,9.800
6.89E-05,9.800
6.90E-05,10.000
6.90E-05,10.000
6.90E-05,10.000
6.90E-05,10.000
6.90E-05,9.800
6.91E-05,9.800
6.91E-05,9.800
6.91E-05,10.000
6.91E-05,9.800
6.91E-05,9.800
6.92E-05,10.000
6.92E-05,10.000
6.92E-05,9.600
6.92E-05,9.800
6.92E-05,9.800
6.93E-05,9.600
6.93E-05,10.000
6.93E-05,10.000
6.93E-05,9.800
6.93E-05,9.600
6.94E-05,10.000
6.94E-05,9.800
6.94E-05,10.000
6.94E-05,10.000
6.94E-05,9.600
6.95E-05,10.000
6.95E-05,10.000
6.95E-05,9.800
6.95E-05,9.800
6.95E-05,10.000
6.96E-05,9.600
6.96E-05,9.800
6.96E-05,9.800
6.96E-05,9.800
6.96E-05,10.000
6.97E-05,9.800
6.97E-05,9.800
6.97E-05,10.000
6.97E-05,9.800
6.97E-05,9.600
6.98E-05,9.400
6.98E-05,8.200
6.98E-05,7.400
6.98E-05,6.200
6.98E-05,5.200
6.99E-05,4.400
6.99E-05,3.600
6.99E-05,2.800
6.99E-05,2.600
6.99E-05,2.200
7.00E-05,1.600
7.00E-05,1.200
7.00E-05,1.400
7.00E-05,1.200
7.00E-05,1.400
7.01E-05,1.200
7.01E-05,1.000
7.01E-05,1.200
7.01E-05,1.200
7.01E-05,0.600
7.02E-05,0.800
7.02E-05,1.000
7.02E-05,1.000
7.02E-05,1.000
7.02E-05,0.600
7.03E-05,0.600
7.03E-05,0.800
7.03E-05,0.800
7.03E-05,0.800
7.03E-05,1.000
7.04E-05,1.000
7.04E-05,0.800
7.04E-05,0.800
7.04E-05,0.800
7.04E-05,1.000
7.05E-05,0.800
7.05E-05,0.600
7.05E-05,0.800
7.05E-05,0.800
7.05E-05,0.800
7.06E-05,0.800
7.06E-05,0.800
7.06E-05,0.800
7.06E-05,1.000
7.06E-05,0.800
7.07E-05,1.000
7.07E-05,0.600
7.07E-05,0.600
7.07E-05,0.800
7.07E-05,0.600
7.08E-05,0.800
7.08E-05,1.000
7.08E-05,0.600
7.08E-05,0.800
7.08E-05,1.000
7.09E-05,0.800
7.09E-05,0.600
7.09E-05,0.800
7.09E-05,1.000
7.09E-05,0.800
7.10E-05,0.600
7.10E-05,0.800
7.10E-05,0.600
7.10E-05,0.600
7.10E-05,0.800
7.11E-05,0.600
7.11E-05,1.400
7.11E-05,3.200
7.11E-05,4.400
7.11E-05,5.400
7.12E-05,6.400
7.12E-05,7.000
7.12E-05,7.600
7.12E-05,7.800
7.12E-05,8.400
7.13E-05,8.400
7.13E-05,8.800
7.13E-05,8.800
7.13E-05,9.200
7.13E-05,9.400
7.14E-05,9.400
7.14E-05,9.400
7.14E-05,9.800
7.14E-05,9.600
7.14E-05,9.600
7.15E-05,9.600
7.15E-05,9.600
7.15E-05,9.600
7.15E-05,9.600
7.15E-05,9.600
7.16E-05,9.800
7.16E-05,9.800
7.16E-05,9.600
7.16E-05,10.000
7.16E-05,9.800
7.17E-05,9.800
7.17E-05,10.200
7.17E-05,10.000
7.17E-05,9.800
7.17E-05,9.800
7.18E-05,10.000
7.18E-05,10.000
7.18E-05,9.800
7.18E-05,9.800
7.18E-05,10.000
7.19E-05,10.200
7.19E-05,9.800
7.19E-05,10.000
7.19E-05,10.000
7.19E-05,10.000
7.20E-05,9.800
7.20E-05,9.800
7.20E-05,10.000
7.20E-05,10.000
7.20E-05,9.800
7.21E-05,10.000
7.21E-05,9.800
7.21E-05,9.800
7.21E-05,9.800
7.21E-05,9.800
7.22E-05,9.800
7.22E-05,10.000
7.22E-05,10.000
7.22E-05,9.600
7.22E-05,9.800
7.23E-05,10.000
7.23E-05,9.600
7.23E-05,9.800
7.23E-05,9.800
7.23E-05,10.000
7.24E-05,10.000
7.24E-05,9.600
7.24E-05,9.600
7.24E-05,9.800
7.24E-05,9.800
7.25E-05,9.800
7.25E-05,10.000
7.25E-05,10.000
7.25E-05,9.600
7.25E-05,9.800
7.26E-05,10.000
7.26E-05,9.600
7.26E-05,9.800
7.26E-05,9.800
7.26E-05,9.800
7.27E-05,9.600
7.27E-05,10.000
7.27E-05,9.600
7.27E-05,9.800
7.27E-05,9.800
7.28E-05,10.000
7.28E-05,9.800
7.28E-05,9.600
7.28E-05,9.800
7.28E-05,10.200
7.29E-05,9.800
7.29E-05,9.600
7.29E-05,10.000
7.29E-05,9.800
7.29E-05,9.800
7.30E-05,9.800
7.30E-05,9.800
7.30E-05,10.000
7.30E-05,9.800
7.30E-05,9.800
7.31E-05,9.800
7.31E-05,10.000
7.31E-05,9.800
7.31E-05,9.800
7.31E-05,9.800
7.32E-05,10.200
7.32E-05,10.000
7.32E-05,9.800
7.32E-05,10.000
7.32E-05,9.800
7.33E-05,9.800
7.33E-05,10.000
7.33E-05,10.000
7.33E-05,9.800
7.33E-05,9.800
7.34E-05,9.800
7.34E-05,9.800
7.34E-05,9.600
7.34E-05,9.800
7.34E-05,9.800
7.35E-05,10.000
7.35E-05,9.600
7.35E-05,9.600
7.35E-05,9.800
7.35E-05,9.600
7.36E-05,9.600
7.36E-05,9.600
7.36E-05,9.600
7.36E-05,9.800
7.36E-05,9.800
7.37E-05,9.600
7.37E-05,9.800
7.37E-05,9.800
7.37E-05,9.600
7.37E-05,9.800
7.38E-05,10.000
7.38E-05,10.000
7.38E-05,9.800
7.38E-05,9.600
7.38E-05,9.800
7.39E-05,10.000
7.39E-05,9.800
7.39E-05,10.000
7.39E-05,10.000
7.39E-05,9.800
7.40E-05,9.600
7.40E-05,9.800
7.40E-05,9.800
7.40E-05,9.800
7.40E-05,10.000
7.41E-05,9.800
7.41E-05,9.600
7.41E-05,9.800
7.41E-05,9.800
7.41E-05,9.800
7.42E-05,10.000
7.42E-05,9.800
7.42E-05,9.800
7.42E-05,10.000
7.42E-05,9.800
7.43E-05,10.000
7.43E-05,10.000
7.43E-05,9.800
7.43E-05,10.000
7.43E-05,9.800
7.44E-05,9.800
7.44E-05,9.600
7.44E-05,9.600
7.44E-05,10.000
7.44E-05,9.800
7.45E-05,9.800
7.45E-05,9.800
7.45E-05,10.000
7.45E-05,9.800
7.45E-05,9.800
7.46E-05,9.800
7.46E-05,9.800
7.46E-05,10.000
7.46E-05,9.800
7.46E-05,10.000
7.47E-05,9.800
7.47E-05,9.800
7.47E-05,10.000
7.47E-05,9.800
7.47E-05,9.800
7.48E-05,10.000
7.48E-05,9.600
7.48E-05,9.800
7.48E-05,9.800
7.48E-05,10.000
7.49E-05,9.800
7.49E-05,9.800
7.49E-05,9.800
7.49E-05,10.000
7.49E-05,10.000
7.50E-05,9.800
7.50E-05,9.800
7.50E-05,9.600
7.50E-05,9.800
7.50E-05,10.000
7.51E-05,10.000
7.51E-05,10.000
7.51E-05,9.600
7.51E-05,9.800
7.51E-05,10.000
7.52E-05,10.000
7.52E-05,9.800
7.52E-05,9.800
7.52E-05,10.000
7.52E-05,9.800
7.53E-05,10.000
7.53E-05,9.800
7.53E-05,9.800
7.53E-05,10.000
7.53E-05,9.800
7.54E-05,9.800
7.54E-05,9.800
7.54E-05,9.800
7.54E-05,10.000
7.54E-05,9.800
7.55E-05,9.800
7.55E-05,9.800
7.55E-05,9.800
7.55E-05,10.000
7.55E-05,9.800
7.56E-05,9.800
7.56E-05,9.800
7.56E-05,10.000
7.56E-05,10.000
7.56E-05,10.000
7.57E-05,10.200
7.57E-05,9.600
7.57E-05,9.800
7.57E-05,9.800
7.57E-05,10.000
7.58E-05,9.800
7.58E-05,9.800
7.58E-05,9.800
7.58E-05,9.800
7.58E-05,9.800
7.59E-05,9.800
7.59E-05,9.800
7.59E-05,9.800
7.59E-05,9.800
7.59E-05,10.200
7.60E-05,10.000
7.60E-05,10.000
7.60E-05,10.000
7.60E-05,10.200
7.60E-05,9.800
7.61E-05,9.800
7.61E-05,10.000
7.61E-05,9.800
7.61E-05,10.000
7.61E-05,10.200
7.62E-05,9.800
7.62E-05,10.000
7.62E-05,10.000
7.62E-05,9.800
7.62E-05,9.800
7.63E-05,10.000
7.63E-05,9.800
7.63E-05,9.800
7.63E-05,9.800
7.63E-05,9.800
7.64E-05,10.000
7.64E-05,10.000
7.64E-05,10.000
7.64E-05,10.000
7.64E-05,10.200
7.65E-05,9.600
7.65E-05,10.000
7.65E-05,9.800
7.65E-05,9.800
7.65E-05,9.800
7.66E-05,9.800
7.66E-05,9.800
7.66E-05,10.000
7.66E-05,10.000
7.66E-05,10.000
7.67E-05,10.000
7.67E-05,9.600
7.67E-05,9.800
7.67E-05,9.600
7.67E-05,9.000
7.68E-05,8.200
7.68E-05,7.200
7.68E-05,6.000
7.68E-05,5.200
7.68E-05,4.400
7.69E-05,3.600
7.69E-05,3.000
7.69E-05,2.400
7.69E-05,2.000
7.69E-05,1.800
7.70E-05,1.600
7.70E-05,1.000
7.70E-05,1.000
7.70E-05,1.200
7.70E-05,0.800
7.71E-05,1.000
7.71E-05,1.200
7.71E-05,1.000
7.71E-05,1.200
7.71E-05,0.800
7.72E-05,1.000
7.72E-05,1.000
7.72E-05,0.800
7.72E-05,1.000
7.72E-05,0.800
7.73E-05,0.800
7.73E-05,0.800
7.73E-05,1.000
7.73E-05,0.800
7.73E-05,0.600
7.74E-05,0.800
7.74E-05,0.800
7.74E-05,1.000
7.74E-05,0.800
7.74E-05,0.800
7.75E-05,0.800
7.75E-05,1.000
7.75E-05,0.800
7.75E-05,1.000
7.75E-05,1.000
7.76E-05,0.600
7.76E-05,0.600
7.76E-05,0.800
7.76E-05,1.000
7.76E-05,0.600
7.77E-05,0.800
7.77E-05,1.000
7.77E-05,0.800
7.77E-05,0.600
7.77E-05,0.800
7.78E-05,1.000
7.78E-05,0.800
7.78E-05,0.800
7.78E-05,1.000
7.78E-05,0.800
7.79E-05,1.000
7.79E-05,0.600
7.79E-05,0.600
7.79E-05,0.800
7.79E-05,0.800
7.80E-05,0.800
7.80E-05,0.800
7.80E-05,1.000
7.80E-05,0.800
7.80E-05,0.800
7.81E-05,1.000
7.81E-05,0.800
7.81E-05,0.600
7.81E-05,0.600
7.81E-05,0.800
7.82E-05,0.800
7.82E-05,0.800
7.82E-05,1.000
7.82E-05,2.600
7.82E-05,4.200
7.83E-05,5.400
7.83E-05,6.200
7.83E-05,6.600
7.83E-05,7.400
7.83E-05,7.800
7.84E-05,8.200
7.84E-05,8.400
7.84E-05,8.600
7.84E-05,9.000
7.84E-05,9.400
7.85E-05,9.400
7.85E-05,9.200
7.85E-05,9.600
7.85E-05,9.600
7.85E-05,9.800
7.86E-05,9.600
7.86E-05,9.600
7.86E-05,9.800
7.86E-05,9.600
7.86E-05,9.600
7.87E-05,9.600
7.87E-05,9.800
7.87E-05,10.000
7.87E-05,9.600
7.87E-05,9.800
7.88E-05,9.800
7.88E-05,9.800
7.88E-05,9.800
7.88E-05,10.000
7.88E-05,9.600
7.89E-05,9.800
7.89E-05,10.000
7.89E-05,9.600
7.89E-05,9.800
7.89E-05,10.000
7.90E-05,10.200
7.90E-05,9.800
7.90E-05,9.800
7.90E-05,10.000
7.90E-05,9.800
7.91E-05,9.800
7.91E-05,10.000
7.91E-05,9.800
7.91E-05,10.200
7.91E-05,10.000
7.92E-05,9.800
7.92E-05,10.000
7.92E-05,9.800
7.92E-05,9.800
7.92E-05,9.600
7.93E-05,9.600
7.93E-05,10.000
7.93E-05,10.000
7.93E-05,9.600
7.93E-05,9.600
7.94E-05,10.000
7.94E-05,10.000
7.94E-05,9.800
7.94E-05,9.800
7.94E-05,9.600
7.95E-05,9.800
7.95E-05,10.000
7.95E-05,10.000
7.95E-05,9.600
7.95E-05,9.800
7.96E-05,10.000
7.96E-05,9.800
7.96E-05,9.800
7.96E-05,10.000
7.96E-05,10.000
7.97E-05,9.800
7.97E-05,9.600
7.97E-05,9.800
7.97E-05,10.000
7.97E-05,9.800
7.98E-05,9.800
7.98E-05,9.800
7.98E-05,9.600
7.98E-05,9.800
7.98E-05,10.000
7.99E-05,9.800
7.99E-05,10.000
7.99E-05,10.200
7.99E-05,9.800
7.99E-05,9.800
8.00E-05,10.000
8.00E-05,10.000
8.00E-05,9.800
